timestampMs,poorSignal,eegRawValue,eegRawValueVolts,attention,meditation,blinkStrength,delta,theta,alphaLow,alphaHigh,betaLow,betaHigh,gammaLow,gammaMid,tagEvent,location
1500042636790,0,-374,-8.2177734375E-5,61,38,45,1213584,16773546,9480,5556,15257,4182,2196,1345,Tag0,unknown
1500042636791,0,-321,-7.053222656250001E-5,61,38,45,1213584,16773546,9480,5556,15257,4182,2196,1345,Tag0,unknown
1500042636791,0,-327,-7.18505859375E-5,61,38,45,1213584,16773546,9480,5556,15257,4182,2196,1345,Tag0,unknown
1500042636792,0,-378,-8.3056640625E-5,61,38,45,1213584,16773546,9480,5556,15257,4182,2196,1345,Tag0,unknown
1500042636793,0,-146,-3.2080078125000004E-5,61,38,45,1213584,16773546,9480,5556,15257,4182,2196,1345,Tag0,unknown
1500042636793,0,-350,-7.6904296875E-5,61,38,45,1213584,16773546,9480,5556,15257,4182,2196,1345,Tag0,unknown
1500042636794,0,-284,-6.240234375E-5,61,38,45,1213584,16773546,9480,5556,15257,4182,2196,1345,Tag0,unknown
1500042636794,0,-290,-6.3720703125E-5,61,38,45,1213584,16773546,9480,5556,15257,4182,2196,1345,Tag0,unknown
1500042636795,0,-345,-7.58056640625E-5,61,38,45,1213584,16773546,9480,5556,15257,4182,2196,1345,Tag0,unknown
1500042636795,0,-341,-7.492675781250002E-5,61,38,45,1213584,16773546,9480,5556,15257,4182,2196,1345,Tag0,unknown
1500042636806,0,-274,-6.0205078124999997E-5,61,38,45,1213584,16773546,9480,5556,15257,4182,2196,1345,Tag0,unknown
1500042636806,0,40,8.7890625E-6,61,38,45,1213584,16773546,9480,5556,15257,4182,2196,1345,Tag0,unknown
1500042636807,0,22,4.833984375E-6,61,38,45,1213584,16773546,9480,5556,15257,4182,2196,1345,Tag0,unknown
1500042636807,0,-309,-6.78955078125E-5,61,38,45,1213584,16773546,9480,5556,15257,4182,2196,1345,Tag0,unknown
1500042636808,0,-354,-7.778320312500001E-5,61,38,45,1213584,16773546,9480,5556,15257,4182,2196,1345,Tag0,unknown
1500042636808,0,-318,-6.9873046875E-5,61,38,45,1213584,16773546,9480,5556,15257,4182,2196,1345,Tag0,unknown
1500042636809,0,-266,-5.8447265625E-5,61,38,45,1213584,16773546,9480,5556,15257,4182,2196,1345,Tag0,unknown
1500042636810,0,-281,-6.17431640625E-5,61,38,45,1213584,16773546,9480,5556,15257,4182,2196,1345,Tag0,unknown
1500042636810,0,-345,-7.58056640625E-5,61,38,45,1213584,16773546,9480,5556,15257,4182,2196,1345,Tag0,unknown
1500042636811,0,-129,-2.8344726562500002E-5,61,38,45,1213584,16773546,9480,5556,15257,4182,2196,1345,Tag0,unknown
1500042636831,0,-369,-8.10791015625E-5,61,38,45,1213584,16773546,9480,5556,15257,4182,2196,1345,Tag0,unknown
1500042636837,0,-312,-6.85546875E-5,61,38,45,1213584,16773546,9480,5556,15257,4182,2196,1345,Tag0,unknown
1500042636838,0,-275,-6.04248046875E-5,61,38,45,1213584,16773546,9480,5556,15257,4182,2196,1345,Tag0,unknown
1500042636838,0,-308,-6.767578125E-5,61,38,45,1213584,16773546,9480,5556,15257,4182,2196,1345,Tag0,unknown
1500042636838,0,-354,-7.778320312500001E-5,61,38,45,1213584,16773546,9480,5556,15257,4182,2196,1345,Tag0,unknown
1500042636839,0,-337,-7.40478515625E-5,61,38,45,1213584,16773546,9480,5556,15257,4182,2196,1345,Tag0,unknown
1500042636839,0,-263,-5.7788085937500005E-5,61,38,45,1213584,16773546,9480,5556,15257,4182,2196,1345,Tag0,unknown
1500042636840,0,38,8.349609375E-6,61,38,45,1213584,16773546,9480,5556,15257,4182,2196,1345,Tag0,unknown
1500042636840,0,11,2.4169921875E-6,61,38,45,1213584,16773546,9480,5556,15257,4182,2196,1345,Tag0,unknown
1500042636841,0,-276,-6.064453125E-5,61,38,45,1213584,16773546,9480,5556,15257,4182,2196,1345,Tag0,unknown
1500042636841,0,-261,-5.73486328125E-5,61,38,45,1213584,16773546,9480,5556,15257,4182,2196,1345,Tag0,unknown
1500042636842,0,27,5.9326171875000005E-6,61,38,45,1213584,16773546,9480,5556,15257,4182,2196,1345,Tag0,unknown
1500042636842,0,44,9.66796875E-6,61,38,45,1213584,16773546,9480,5556,15257,4182,2196,1345,Tag0,unknown
1500042636843,0,7,1.5380859375E-6,61,38,45,1213584,16773546,9480,5556,15257,4182,2196,1345,Tag0,unknown
1500042636843,0,-299,-6.56982421875E-5,61,38,45,1213584,16773546,9480,5556,15257,4182,2196,1345,Tag0,unknown
1500042636844,0,-276,-6.064453125E-5,61,38,45,1213584,16773546,9480,5556,15257,4182,2196,1345,Tag0,unknown
1500042636844,0,54,1.1865234375000001E-5,61,38,45,1213584,16773546,9480,5556,15257,4182,2196,1345,Tag0,unknown
1500042636845,0,86,1.8896484375000003E-5,61,38,45,1213584,16773546,9480,5556,15257,4182,2196,1345,Tag0,unknown
1500042636845,0,51,1.1206054687499999E-5,61,38,45,1213584,16773546,9480,5556,15257,4182,2196,1345,Tag0,unknown
1500042636845,0,0,0.0,61,38,45,1213584,16773546,9480,5556,15257,4182,2196,1345,Tag0,unknown
1500042636871,0,-257,-5.64697265625E-5,61,38,45,1213584,16773546,9480,5556,15257,4182,2196,1345,Tag0,unknown
1500042636872,0,41,9.008789062499999E-6,61,38,45,1213584,16773546,9480,5556,15257,4182,2196,1345,Tag0,unknown
1500042636872,0,92,2.021484375E-5,61,38,45,1213584,16773546,9480,5556,15257,4182,2196,1345,Tag0,unknown
1500042636873,0,101,2.2192382812500002E-5,61,38,45,1213584,16773546,9480,5556,15257,4182,2196,1345,Tag0,unknown
1500042636873,0,55,1.20849609375E-5,61,38,45,1213584,16773546,9480,5556,15257,4182,2196,1345,Tag0,unknown
1500042636874,0,21,4.614257812500001E-6,61,38,45,1213584,16773546,9480,5556,15257,4182,2196,1345,Tag0,unknown
1500042636874,0,42,9.228515625000002E-6,61,38,45,1213584,16773546,9480,5556,15257,4182,2196,1345,Tag0,unknown
1500042636874,0,83,1.82373046875E-5,61,38,45,1213584,16773546,9480,5556,15257,4182,2196,1345,Tag0,unknown
1500042636874,0,81,1.77978515625E-5,61,38,45,1213584,16773546,9480,5556,15257,4182,2196,1345,Tag0,unknown
1500042636874,0,28,6.15234375E-6,61,38,45,1213584,16773546,9480,5556,15257,4182,2196,1345,Tag0,unknown
1500042636875,0,10,2.197265625E-6,61,38,45,1213584,16773546,9480,5556,15257,4182,2196,1345,Tag0,unknown
1500042636875,0,38,8.349609375E-6,61,38,45,1213584,16773546,9480,5556,15257,4182,2196,1345,Tag0,unknown
1500042636875,0,75,1.64794921875E-5,61,38,45,1213584,16773546,9480,5556,15257,4182,2196,1345,Tag0,unknown
1500042636875,0,82,1.8017578124999998E-5,61,38,45,1213584,16773546,9480,5556,15257,4182,2196,1345,Tag0,unknown
1500042636875,0,49,1.07666015625E-5,61,38,45,1213584,16773546,9480,5556,15257,4182,2196,1345,Tag0,unknown
1500042636876,0,26,5.712890625E-6,61,38,45,1213584,16773546,9480,5556,15257,4182,2196,1345,Tag0,unknown
1500042636876,0,43,9.448242187500001E-6,61,38,45,1213584,16773546,9480,5556,15257,4182,2196,1345,Tag0,unknown
1500042636876,0,81,1.77978515625E-5,61,38,45,1213584,16773546,9480,5556,15257,4182,2196,1345,Tag0,unknown
1500042636876,0,82,1.8017578124999998E-5,61,38,45,1213584,16773546,9480,5556,15257,4182,2196,1345,Tag0,unknown
1500042636876,0,27,5.9326171875000005E-6,61,38,45,1213584,16773546,9480,5556,15257,4182,2196,1345,Tag0,unknown
1500042636907,0,-263,-5.7788085937500005E-5,61,38,45,1213584,16773546,9480,5556,15257,4182,2196,1345,Tag0,unknown
1500042636908,0,17,3.7353515625000003E-6,61,38,45,1213584,16773546,9480,5556,15257,4182,2196,1345,Tag0,unknown
1500042636908,0,70,1.5380859375E-5,61,38,45,1213584,16773546,9480,5556,15257,4182,2196,1345,Tag0,unknown
1500042636909,0,88,1.93359375E-5,61,38,45,1213584,16773546,9480,5556,15257,4182,2196,1345,Tag0,unknown
1500042636909,0,23,5.0537109375E-6,61,38,45,1213584,16773546,9480,5556,15257,4182,2196,1345,Tag0,unknown
1500042636909,0,-306,-6.723632812500001E-5,61,38,45,1213584,16773546,9480,5556,15257,4182,2196,1345,Tag0,unknown
1500042636910,0,-317,-6.96533203125E-5,61,38,45,1213584,16773546,9480,5556,15257,4182,2196,1345,Tag0,unknown
1500042636910,0,-290,-6.3720703125E-5,61,38,45,1213584,16773546,9480,5556,15257,4182,2196,1345,Tag0,unknown
1500042636910,0,-289,-6.35009765625E-5,61,38,45,1213584,16773546,9480,5556,15257,4182,2196,1345,Tag0,unknown
1500042636910,0,-341,-7.492675781250002E-5,61,38,45,1213584,16773546,9480,5556,15257,4182,2196,1345,Tag0,unknown
1500042636921,0,-131,-2.87841796875E-5,61,38,45,1213584,16773546,9480,5556,15257,4182,2196,1345,Tag0,unknown
1500042636921,0,-360,-7.91015625E-5,61,38,45,1213584,16773546,9480,5556,15257,4182,2196,1345,Tag0,unknown
1500042636922,0,-297,-6.525878906250001E-5,61,38,45,1213584,16773546,9480,5556,15257,4182,2196,1345,Tag0,unknown
1500042636922,0,4,8.7890625E-7,61,38,45,1213584,16773546,9480,5556,15257,4182,2196,1345,Tag0,unknown
1500042636923,0,-266,-5.8447265625E-5,61,38,45,1213584,16773546,9480,5556,15257,4182,2196,1345,Tag0,unknown
1500042636924,0,-309,-6.78955078125E-5,61,38,45,1213584,16773546,9480,5556,15257,4182,2196,1345,Tag0,unknown
1500042636924,0,-318,-6.9873046875E-5,61,38,45,1213584,16773546,9480,5556,15257,4182,2196,1345,Tag0,unknown
1500042636924,0,-279,-6.13037109375E-5,61,38,45,1213584,16773546,9480,5556,15257,4182,2196,1345,Tag0,unknown
1500042636925,0,23,5.0537109375E-6,61,38,45,1213584,16773546,9480,5556,15257,4182,2196,1345,Tag0,unknown
1500042636925,0,19,4.1748046875E-6,61,38,45,1213584,16773546,9480,5556,15257,4182,2196,1345,Tag0,unknown
1500042636942,0,-276,-6.064453125E-5,61,38,45,1213584,16773546,9480,5556,15257,4182,2196,1345,Tag0,unknown
1500042636955,0,-289,-6.35009765625E-5,61,38,45,1213584,16773546,9480,5556,15257,4182,2196,1345,Tag0,unknown
1500042636955,0,3,6.591796875E-7,61,38,45,1213584,16773546,9480,5556,15257,4182,2196,1345,Tag0,unknown
1500042636956,0,44,9.66796875E-6,61,38,45,1213584,16773546,9480,5556,15257,4182,2196,1345,Tag0,unknown
1500042636957,0,35,7.6904296875E-6,61,38,45,1213584,16773546,9480,5556,15257,4182,2196,1345,Tag0,unknown
1500042636957,0,-281,-6.17431640625E-5,61,38,45,1213584,16773546,9480,5556,15257,4182,2196,1345,Tag0,unknown
1500042636958,0,-307,-6.74560546875E-5,61,38,45,1213584,16773546,9480,5556,15257,4182,2196,1345,Tag0,unknown
1500042636958,0,-262,-5.7568359375E-5,61,38,45,1213584,16773546,9480,5556,15257,4182,2196,1345,Tag0,unknown
1500042636958,0,50,1.0986328125E-5,61,38,45,1213584,16773546,9480,5556,15257,4182,2196,1345,Tag0,unknown
1500042636959,0,64,1.40625E-5,61,38,45,1213584,16773546,9480,5556,15257,4182,2196,1345,Tag0,unknown
1500042636959,0,32,7.03125E-6,61,38,45,1213584,16773546,9480,5556,15257,4182,2196,1345,Tag0,unknown
1500042636960,0,10,2.197265625E-6,61,38,45,1213584,16773546,9480,5556,15257,4182,2196,1345,Tag0,unknown
1500042636960,0,42,9.228515625000002E-6,61,38,45,1213584,16773546,9480,5556,15257,4182,2196,1345,Tag0,unknown
1500042636961,0,108,2.3730468750000002E-5,61,38,45,1213584,16773546,9480,5556,15257,4182,2196,1345,Tag0,unknown
1500042636961,0,-117,-2.5708007812499998E-5,61,38,45,1213584,16773546,9480,5556,15257,4182,2196,1345,Tag0,unknown
1500042636961,0,81,1.77978515625E-5,61,38,45,1213584,16773546,9480,5556,15257,4182,2196,1345,Tag0,unknown
1500042636961,0,11,2.4169921875E-6,61,38,45,1213584,16773546,9480,5556,15257,4182,2196,1345,Tag0,unknown
1500042636962,0,20,4.39453125E-6,61,38,45,1213584,16773546,9480,5556,15257,4182,2196,1345,Tag0,unknown
1500042636962,0,77,1.69189453125E-5,61,38,45,1213584,16773546,9480,5556,15257,4182,2196,1345,Tag0,unknown
1500042636962,0,92,2.021484375E-5,61,38,45,1213584,16773546,9480,5556,15257,4182,2196,1345,Tag0,unknown
1500042636983,0,40,8.7890625E-6,61,38,45,1213584,16773546,9480,5556,15257,4182,2196,1345,Tag0,unknown
1500042636991,0,-266,-5.8447265625E-5,61,38,45,1213584,16773546,9480,5556,15257,4182,2196,1345,Tag0,unknown
1500042636991,0,-263,-5.7788085937500005E-5,61,38,45,1213584,16773546,9480,5556,15257,4182,2196,1345,Tag0,unknown
1500042636992,0,33,7.2509765625E-6,61,38,45,1213584,16773546,9480,5556,15257,4182,2196,1345,Tag0,unknown
1500042636992,0,71,1.56005859375E-5,61,38,45,1213584,16773546,9480,5556,15257,4182,2196,1345,Tag0,unknown
1500042636993,0,57,1.2524414062500001E-5,61,38,45,1213584,16773546,9480,5556,15257,4182,2196,1345,Tag0,unknown
1500042636993,0,21,4.614257812500001E-6,61,38,45,1213584,16773546,9480,5556,15257,4182,2196,1345,Tag0,unknown
1500042636994,0,18,3.955078125E-6,61,38,45,1213584,16773546,9480,5556,15257,4182,2196,1345,Tag0,unknown
1500042636994,0,64,1.40625E-5,61,38,45,1213584,16773546,9480,5556,15257,4182,2196,1345,Tag0,unknown
1500042636995,0,106,2.3291015625000003E-5,61,38,45,1213584,16773546,9480,5556,15257,4182,2196,1345,Tag0,unknown
1500042636996,0,103,2.26318359375E-5,61,38,45,1213584,16773546,9480,5556,15257,4182,2196,1345,Tag0,unknown
1500042636996,0,67,1.4721679687500002E-5,61,38,45,1213584,16773546,9480,5556,15257,4182,2196,1345,Tag0,unknown
1500042637005,0,65,1.42822265625E-5,61,38,45,1213584,16773546,9480,5556,15257,4182,2196,1345,Tag0,unknown
1500042637006,0,93,2.04345703125E-5,61,38,45,1213584,16773546,9480,5556,15257,4182,2196,1345,Tag0,unknown
1500042637006,0,-126,-2.7685546875E-5,61,38,45,1213584,16773546,9480,5556,15257,4182,2196,1345,Tag0,unknown
1500042637007,0,107,2.35107421875E-5,61,38,45,1213584,16773546,9480,5556,15257,4182,2196,1345,Tag0,unknown
1500042637007,0,36,7.91015625E-6,61,38,45,1213584,16773546,9480,5556,15257,4182,2196,1345,Tag0,unknown
1500042637008,0,1,2.197265625E-7,61,38,45,1213584,16773546,9480,5556,15257,4182,2196,1345,Tag0,unknown
1500042637008,0,48,1.0546875E-5,61,38,45,1213584,16773546,9480,5556,15257,4182,2196,1345,Tag0,unknown
1500042637009,0,107,2.35107421875E-5,61,38,45,1213584,16773546,9480,5556,15257,4182,2196,1345,Tag0,unknown
1500042637023,0,96,2.109375E-5,61,38,45,1213584,16773546,9480,5556,15257,4182,2196,1345,Tag0,unknown
1500042637023,0,37,8.1298828125E-6,61,38,45,1213584,16773546,9480,5556,15257,4182,2196,1345,Tag0,unknown
1500042637024,0,32,7.03125E-6,61,38,45,1213584,16773546,9480,5556,15257,4182,2196,1345,Tag0,unknown
1500042637024,0,76,1.669921875E-5,61,38,45,1213584,16773546,9480,5556,15257,4182,2196,1345,Tag0,unknown
1500042637025,0,-122,-2.6806640625E-5,61,38,45,1213584,16773546,9480,5556,15257,4182,2196,1345,Tag0,unknown
1500042637026,0,-105,-2.30712890625E-5,61,38,45,1213584,16773546,9480,5556,15257,4182,2196,1345,Tag0,unknown
1500042637026,0,112,2.4609375E-5,61,38,45,1213584,16773546,9480,5556,15257,4182,2196,1345,Tag0,unknown
1500042637027,0,74,1.6259765625E-5,61,38,45,1213584,16773546,9480,5556,15257,4182,2196,1345,Tag0,unknown
1500042637028,0,98,2.1533203125E-5,61,38,45,1213584,16773546,9480,5556,15257,4182,2196,1345,Tag0,unknown
1500042637028,0,-103,-2.26318359375E-5,61,38,45,1213584,16773546,9480,5556,15257,4182,2196,1345,Tag0,unknown
1500042637039,0,-86,-1.8896484375000003E-5,61,38,45,1213584,16773546,9480,5556,15257,4182,2196,1345,Tag0,unknown
1500042637040,0,122,2.6806640625E-5,61,38,45,1213584,16773546,9480,5556,15257,4182,2196,1345,Tag0,unknown
1500042637040,0,86,1.8896484375000003E-5,61,38,45,1213584,16773546,9480,5556,15257,4182,2196,1345,Tag0,unknown
1500042637041,0,114,2.5048828125000003E-5,61,38,45,1213584,16773546,9480,5556,15257,4182,2196,1345,Tag0,unknown
1500042637041,0,-79,-1.7358398437500003E-5,61,38,45,1213584,16773546,9480,5556,15257,4182,2196,1345,Tag0,unknown
1500042637042,0,-58,-1.2744140625E-5,61,38,45,1213584,16773546,9480,5556,15257,4182,2196,1345,Tag0,unknown
1500042637042,0,-112,-2.4609375E-5,61,38,45,1213584,16773546,9480,5556,15257,4182,2196,1345,Tag0,unknown
1500042637043,0,89,1.95556640625E-5,61,38,45,1213584,16773546,9480,5556,15257,4182,2196,1345,Tag0,unknown
1500042637044,0,101,2.2192382812500002E-5,61,38,45,1213584,16773546,9480,5556,15257,4182,2196,1345,Tag0,unknown
1500042637044,0,-90,-1.9775390625E-5,61,38,45,1213584,16773546,9480,5556,15257,4182,2196,1345,Tag0,unknown
1500042637060,0,-60,-1.318359375E-5,61,38,45,1213584,16773546,9480,5556,15257,4182,2196,1345,Tag0,unknown
1500042637073,0,-95,-2.08740234375E-5,61,38,45,1213584,16773546,9480,5556,15257,4182,2196,1345,Tag0,unknown
1500042637073,0,106,2.3291015625000003E-5,61,38,45,1213584,16773546,9480,5556,15257,4182,2196,1345,Tag0,unknown
1500042637074,0,104,2.28515625E-5,61,38,45,1213584,16773546,9480,5556,15257,4182,2196,1345,Tag0,unknown
1500042637074,0,-112,-2.4609375E-5,61,38,45,1213584,16773546,9480,5556,15257,4182,2196,1345,Tag0,unknown
1500042637075,0,-87,-1.91162109375E-5,61,38,45,1213584,16773546,9480,5556,15257,4182,2196,1345,Tag0,unknown
1500042637075,0,-121,-2.6586914062500003E-5,61,38,45,1213584,16773546,9480,5556,15257,4182,2196,1345,Tag0,unknown
1500042637076,0,67,1.4721679687500002E-5,61,38,45,1213584,16773546,9480,5556,15257,4182,2196,1345,Tag0,unknown
1500042637076,0,43,9.448242187500001E-6,61,38,45,1213584,16773546,9480,5556,15257,4182,2196,1345,Tag0,unknown
1500042637077,0,82,1.8017578124999998E-5,61,38,45,1213584,16773546,9480,5556,15257,4182,2196,1345,Tag0,unknown
1500042637077,0,-124,-2.724609375E-5,61,38,45,1213584,16773546,9480,5556,15257,4182,2196,1345,Tag0,unknown
1500042637078,0,123,2.70263671875E-5,61,38,45,1213584,16773546,9480,5556,15257,4182,2196,1345,Tag0,unknown
1500042637079,0,59,1.29638671875E-5,61,38,45,1213584,16773546,9480,5556,15257,4182,2196,1345,Tag0,unknown
1500042637079,0,27,5.9326171875000005E-6,61,38,45,1213584,16773546,9480,5556,15257,4182,2196,1345,Tag0,unknown
1500042637079,0,57,1.2524414062500001E-5,61,38,45,1213584,16773546,9480,5556,15257,4182,2196,1345,Tag0,unknown
1500042637079,0,104,2.28515625E-5,61,38,45,1213584,16773546,9480,5556,15257,4182,2196,1345,Tag0,unknown
1500042637080,0,101,2.2192382812500002E-5,61,38,45,1213584,16773546,9480,5556,15257,4182,2196,1345,Tag0,unknown
1500042637080,0,40,8.7890625E-6,61,38,45,1213584,16773546,9480,5556,15257,4182,2196,1345,Tag0,unknown
1500042637080,0,0,0.0,61,38,45,1213584,16773546,9480,5556,15257,4182,2196,1345,Tag0,unknown
1500042637080,0,23,5.0537109375E-6,61,38,45,1213584,16773546,9480,5556,15257,4182,2196,1345,Tag0,unknown
1500042637098,0,81,1.77978515625E-5,61,38,45,1213584,16773546,9480,5556,15257,4182,2196,1345,Tag0,unknown
1500042637107,0,86,1.8896484375000003E-5,61,38,45,1213584,16773546,9480,5556,15257,4182,2196,1345,Tag0,unknown
1500042637107,0,17,3.7353515625000003E-6,61,38,45,1213584,16773546,9480,5556,15257,4182,2196,1345,Tag0,unknown
1500042637108,0,-309,-6.78955078125E-5,61,38,45,1213584,16773546,9480,5556,15257,4182,2196,1345,Tag0,unknown
1500042637108,0,-331,-7.272949218750001E-5,61,38,45,1213584,16773546,9480,5556,15257,4182,2196,1345,Tag0,unknown
1500042637109,0,-307,-6.74560546875E-5,61,38,45,1213584,16773546,9480,5556,15257,4182,2196,1345,Tag0,unknown
1500042637109,0,7,1.5380859375E-6,61,38,45,1213584,16773546,9480,5556,15257,4182,2196,1345,Tag0,unknown
1500042637110,0,21,4.614257812500001E-6,61,38,45,1213584,16773546,9480,5556,15257,4182,2196,1345,Tag0,unknown
1500042637110,0,-258,-5.6689453125000004E-5,61,38,45,1213584,16773546,9480,5556,15257,4182,2196,1345,Tag0,unknown
1500042637110,0,9,1.9775390625E-6,61,38,45,1213584,16773546,9480,5556,15257,4182,2196,1345,Tag0,unknown
1500042637111,0,56,1.23046875E-5,61,38,45,1213584,16773546,9480,5556,15257,4182,2196,1345,Tag0,unknown
1500042637111,0,90,1.9775390625E-5,61,38,45,1213584,16773546,9480,5556,15257,4182,2196,1345,Tag0,unknown
1500042637112,0,76,1.669921875E-5,61,38,45,1213584,16773546,9480,5556,15257,4182,2196,1345,Tag0,unknown
1500042637112,0,53,1.1645507812500002E-5,61,38,45,1213584,16773546,9480,5556,15257,4182,2196,1345,Tag0,unknown
1500042637113,0,71,1.56005859375E-5,61,38,45,1213584,16773546,9480,5556,15257,4182,2196,1345,Tag0,unknown
1500042637113,0,118,2.5927734375E-5,61,38,45,1213584,16773546,9480,5556,15257,4182,2196,1345,Tag0,unknown
1500042637113,0,-109,-2.39501953125E-5,61,38,45,1213584,16773546,9480,5556,15257,4182,2196,1345,Tag0,unknown
1500042637113,0,124,2.724609375E-5,61,38,45,1213584,16773546,9480,5556,15257,4182,2196,1345,Tag0,unknown
1500042637113,0,90,1.9775390625E-5,61,38,45,1213584,16773546,9480,5556,15257,4182,2196,1345,Tag0,unknown
1500042637114,0,87,1.91162109375E-5,61,38,45,1213584,16773546,9480,5556,15257,4182,2196,1345,Tag0,unknown
1500042637138,0,121,2.6586914062500003E-5,61,38,45,1213584,16773546,9480,5556,15257,4182,2196,1345,Tag0,unknown
1500042637157,0,-99,-2.1752929687500003E-5,61,38,45,1213584,16773546,9480,5556,15257,4182,2196,1345,Tag0,unknown
1500042637157,0,-92,-2.021484375E-5,61,38,45,1213584,16773546,9480,5556,15257,4182,2196,1345,Tag0,unknown
1500042637158,0,-100,-2.197265625E-5,61,38,45,1213584,16773546,9480,5556,15257,4182,2196,1345,Tag0,unknown
1500042637158,0,-76,-1.669921875E-5,61,38,45,1213584,16773546,9480,5556,15257,4182,2196,1345,Tag0,unknown
1500042637159,0,-35,-7.6904296875E-6,61,38,45,1213584,16773546,9480,5556,15257,4182,2196,1345,Tag0,unknown
1500042637159,0,263,5.7788085937500005E-5,61,38,45,1213584,16773546,9480,5556,15257,4182,2196,1345,Tag0,unknown
1500042637160,0,-9,-1.9775390625E-6,61,38,45,1213584,16773546,9480,5556,15257,4182,2196,1345,Tag0,unknown
1500042637160,0,-86,-1.8896484375000003E-5,61,38,37,1213584,16773546,9480,5556,15257,4182,2196,1345,Tag0,unknown
1500042637161,0,112,2.4609375E-5,61,38,37,1213584,16773546,9480,5556,15257,4182,2196,1345,Tag0,unknown
1500042637175,0,-128,-2.8125E-5,61,38,37,1213584,16773546,9480,5556,15257,4182,2196,1345,Tag0,unknown
1500042637175,0,-79,-1.7358398437500003E-5,61,38,37,1213584,16773546,9480,5556,15257,4182,2196,1345,Tag0,unknown
1500042637176,0,-69,-1.51611328125E-5,61,38,37,1213584,16773546,9480,5556,15257,4182,2196,1345,Tag0,unknown
1500042637177,0,-120,-2.63671875E-5,61,38,37,1213584,16773546,9480,5556,15257,4182,2196,1345,Tag0,unknown
1500042637177,0,106,2.3291015625000003E-5,61,38,37,1213584,16773546,9480,5556,15257,4182,2196,1345,Tag0,unknown
1500042637178,0,-119,-2.6147460937500004E-5,61,38,37,1213584,16773546,9480,5556,15257,4182,2196,1345,Tag0,unknown
1500042637178,0,-78,-1.7138671875E-5,61,38,37,1213584,16773546,9480,5556,15257,4182,2196,1345,Tag0,unknown
1500042637178,0,-92,-2.021484375E-5,61,38,37,1213584,16773546,9480,5556,15257,4182,2196,1345,Tag0,unknown
1500042637179,0,87,1.91162109375E-5,61,38,37,1213584,16773546,9480,5556,15257,4182,2196,1345,Tag0,unknown
1500042637179,0,28,6.15234375E-6,61,38,37,1213584,16773546,9480,5556,15257,4182,2196,1345,Tag0,unknown
1500042637180,0,48,1.0546875E-5,61,38,37,1213584,16773546,9480,5556,15257,4182,2196,1345,Tag0,unknown
1500042637180,0,104,2.28515625E-5,61,38,37,1213584,16773546,9480,5556,15257,4182,2196,1345,Tag0,unknown
1500042637190,0,112,2.4609375E-5,61,38,37,1213584,16773546,9480,5556,15257,4182,2196,1345,Tag0,unknown
1500042637191,0,38,8.349609375E-6,61,38,37,1213584,16773546,9480,5556,15257,4182,2196,1345,Tag0,unknown
1500042637191,0,-274,-6.0205078124999997E-5,61,38,37,1213584,16773546,9480,5556,15257,4182,2196,1345,Tag0,unknown
1500042637192,0,-264,-5.80078125E-5,61,38,37,1213584,16773546,9480,5556,15257,4182,2196,1345,Tag0,unknown
1500042637193,0,28,6.15234375E-6,61,38,37,1213584,16773546,9480,5556,15257,4182,2196,1345,Tag0,unknown
1500042637193,0,42,9.228515625000002E-6,61,38,37,1213584,16773546,9480,5556,15257,4182,2196,1345,Tag0,unknown
1500042637194,0,-277,-6.0864257812500005E-5,61,38,37,1213584,16773546,9480,5556,15257,4182,2196,1345,Tag0,unknown
1500042637194,0,-358,-7.8662109375E-5,61,38,37,1213584,16773546,9480,5556,15257,4182,2196,1345,Tag0,unknown
1500042637209,0,-381,-8.371582031250001E-5,61,38,37,1213584,16773546,9480,5556,15257,4182,2196,1345,Tag0,unknown
1500042637224,0,-346,-7.6025390625E-5,61,38,37,1213584,16773546,9480,5556,15257,4182,2196,1345,Tag0,unknown
1500042637225,0,-316,-6.943359375000001E-5,61,38,37,1213584,16773546,9480,5556,15257,4182,2196,1345,Tag0,unknown
1500042637225,0,-327,-7.18505859375E-5,61,38,37,1213584,16773546,9480,5556,15257,4182,2196,1345,Tag0,unknown
1500042637226,0,-340,-7.470703125E-5,61,38,37,1213584,16773546,9480,5556,15257,4182,2196,1345,Tag0,unknown
1500042637227,0,-315,-6.92138671875E-5,61,38,37,1213584,16773546,9480,5556,15257,4182,2196,1345,Tag0,unknown
1500042637227,0,-263,-5.7788085937500005E-5,61,38,37,1213584,16773546,9480,5556,15257,4182,2196,1345,Tag0,unknown
1500042637228,0,39,8.5693359375E-6,61,38,37,1213584,16773546,9480,5556,15257,4182,2196,1345,Tag0,unknown
1500042637228,0,34,7.4707031250000005E-6,61,38,37,1213584,16773546,9480,5556,15257,4182,2196,1345,Tag0,unknown
1500042637228,0,-262,-5.7568359375E-5,61,38,37,1213584,16773546,9480,5556,15257,4182,2196,1345,Tag0,unknown
1500042637229,0,-269,-5.9106445312499996E-5,61,38,37,1213584,16773546,9480,5556,15257,4182,2196,1345,Tag0,unknown
1500042637229,0,25,5.4931640625E-6,61,38,37,1213584,16773546,9480,5556,15257,4182,2196,1345,Tag0,unknown
1500042637230,0,60,1.318359375E-5,61,38,37,1213584,16773546,9480,5556,15257,4182,2196,1345,Tag0,unknown
1500042637230,0,44,9.66796875E-6,61,38,37,1213584,16773546,9480,5556,15257,4182,2196,1345,Tag0,unknown
1500042637230,0,-261,-5.73486328125E-5,61,38,37,1213584,16773546,9480,5556,15257,4182,2196,1345,Tag0,unknown
1500042637231,0,-268,-5.8886718750000006E-5,61,38,37,1213584,16773546,9480,5556,15257,4182,2196,1345,Tag0,unknown
1500042637231,0,26,5.712890625E-6,61,38,37,1213584,16773546,9480,5556,15257,4182,2196,1345,Tag0,unknown
1500042637232,0,68,1.4941406250000001E-5,61,38,37,1213584,16773546,9480,5556,15257,4182,2196,1345,Tag0,unknown
1500042637232,0,56,1.23046875E-5,61,38,37,1213584,16773546,9480,5556,15257,4182,2196,1345,Tag0,unknown
1500042637233,0,5,1.0986328125E-6,61,38,37,1213584,16773546,9480,5556,15257,4182,2196,1345,Tag0,unknown
1500042637245,0,-273,-5.998535156250001E-5,61,38,37,1213584,16773546,9480,5556,15257,4182,2196,1345,Tag0,unknown
1500042637258,0,12,2.63671875E-6,61,38,37,1213584,16773546,9480,5556,15257,4182,2196,1345,Tag0,unknown
1500042637259,0,53,1.1645507812500002E-5,61,38,37,1213584,16773546,9480,5556,15257,4182,2196,1345,Tag0,unknown
1500042637259,0,45,9.8876953125E-6,61,38,37,1213584,16773546,9480,5556,15257,4182,2196,1345,Tag0,unknown
1500042637260,0,-259,-5.69091796875E-5,61,38,37,1213584,16773546,9480,5556,15257,4182,2196,1345,Tag0,unknown
1500042637260,0,-280,-6.15234375E-5,61,38,37,1213584,16773546,9480,5556,15257,4182,2196,1345,Tag0,unknown
1500042637261,0,-264,-5.80078125E-5,61,38,37,1213584,16773546,9480,5556,15257,4182,2196,1345,Tag0,unknown
1500042637261,0,10,2.197265625E-6,61,38,37,1213584,16773546,9480,5556,15257,4182,2196,1345,Tag0,unknown
1500042637263,0,19,4.1748046875E-6,50,34,37,957476,183505,21422,16772019,31864,26809,11013,5821,Tag0,unknown
1500042637263,0,-273,-5.998535156250001E-5,50,34,37,957476,183505,21422,16772019,31864,26809,11013,5821,Tag0,unknown
1500042637264,0,-323,-7.09716796875E-5,50,34,37,957476,183505,21422,16772019,31864,26809,11013,5821,Tag0,unknown
1500042637264,0,-329,-7.229003906250001E-5,50,34,37,957476,183505,21422,16772019,31864,26809,11013,5821,Tag0,unknown
1500042637264,0,-290,-6.3720703125E-5,50,34,37,957476,183505,21422,16772019,31864,26809,11013,5821,Tag0,unknown
1500042637265,0,-261,-5.73486328125E-5,50,34,37,957476,183505,21422,16772019,31864,26809,11013,5821,Tag0,unknown
1500042637265,0,-276,-6.064453125E-5,50,34,37,957476,183505,21422,16772019,31864,26809,11013,5821,Tag0,unknown
1500042637265,0,-284,-6.240234375E-5,50,34,37,957476,183505,21422,16772019,31864,26809,11013,5821,Tag0,unknown
1500042637265,0,-257,-5.64697265625E-5,50,34,37,957476,183505,21422,16772019,31864,26809,11013,5821,Tag0,unknown
1500042637265,0,45,9.8876953125E-6,50,34,37,957476,183505,21422,16772019,31864,26809,11013,5821,Tag0,unknown
1500042637266,0,81,1.77978515625E-5,50,34,37,957476,183505,21422,16772019,31864,26809,11013,5821,Tag0,unknown
1500042637266,0,59,1.29638671875E-5,50,34,37,957476,183505,21422,16772019,31864,26809,11013,5821,Tag0,unknown
1500042637267,0,23,5.0537109375E-6,50,34,37,957476,183505,21422,16772019,31864,26809,11013,5821,Tag0,unknown
1500042637267,0,25,5.4931640625E-6,50,34,37,957476,183505,21422,16772019,31864,26809,11013,5821,Tag0,unknown
1500042637267,0,66,1.4501953125E-5,50,34,37,957476,183505,21422,16772019,31864,26809,11013,5821,Tag0,unknown
1500042637267,0,87,1.91162109375E-5,50,34,37,957476,183505,21422,16772019,31864,26809,11013,5821,Tag0,unknown
1500042637268,0,54,1.1865234375000001E-5,50,34,37,957476,183505,21422,16772019,31864,26809,11013,5821,Tag0,unknown
1500042637286,0,17,3.7353515625000003E-6,50,34,37,957476,183505,21422,16772019,31864,26809,11013,5821,Tag0,unknown
1500042637294,0,34,7.4707031250000005E-6,50,34,37,957476,183505,21422,16772019,31864,26809,11013,5821,Tag0,unknown
1500042637295,0,83,1.82373046875E-5,50,34,37,957476,183505,21422,16772019,31864,26809,11013,5821,Tag0,unknown
1500042637295,0,-122,-2.6806640625E-5,50,34,37,957476,183505,21422,16772019,31864,26809,11013,5821,Tag0,unknown
1500042637296,0,-128,-2.8125E-5,50,34,37,957476,183505,21422,16772019,31864,26809,11013,5821,Tag0,unknown
1500042637297,0,54,1.1865234375000001E-5,50,34,37,957476,183505,21422,16772019,31864,26809,11013,5821,Tag0,unknown
1500042637298,0,17,3.7353515625000003E-6,50,34,37,957476,183505,21422,16772019,31864,26809,11013,5821,Tag0,unknown
1500042637298,0,69,1.51611328125E-5,50,34,37,957476,183505,21422,16772019,31864,26809,11013,5821,Tag0,unknown
1500042637299,0,-119,-2.6147460937500004E-5,50,34,37,957476,183505,21422,16772019,31864,26809,11013,5821,Tag0,unknown
1500042637300,0,-125,-2.74658203125E-5,50,34,37,957476,183505,21422,16772019,31864,26809,11013,5821,Tag0,unknown
1500042637300,0,65,1.42822265625E-5,50,34,37,957476,183505,21422,16772019,31864,26809,11013,5821,Tag0,unknown
1500042637301,0,24,5.2734375E-6,50,34,37,957476,183505,21422,16772019,31864,26809,11013,5821,Tag0,unknown
1500042637301,0,49,1.07666015625E-5,50,34,37,957476,183505,21422,16772019,31864,26809,11013,5821,Tag0,unknown
1500042637302,0,100,2.197265625E-5,50,34,37,957476,183505,21422,16772019,31864,26809,11013,5821,Tag0,unknown
1500042637303,0,119,2.6147460937500004E-5,50,34,37,957476,183505,21422,16772019,31864,26809,11013,5821,Tag0,unknown
1500042637303,0,74,1.6259765625E-5,50,34,37,957476,183505,21422,16772019,31864,26809,11013,5821,Tag0,unknown
1500042637304,0,34,7.4707031250000005E-6,50,34,37,957476,183505,21422,16772019,31864,26809,11013,5821,Tag0,unknown
1500042637304,0,51,1.1206054687499999E-5,50,34,37,957476,183505,21422,16772019,31864,26809,11013,5821,Tag0,unknown
1500042637305,0,112,2.4609375E-5,50,34,37,957476,183505,21422,16772019,31864,26809,11013,5821,Tag0,unknown
1500042637306,0,-112,-2.4609375E-5,50,34,37,957476,183505,21422,16772019,31864,26809,11013,5821,Tag0,unknown
1500042637323,0,106,2.3291015625000003E-5,50,34,37,957476,183505,21422,16772019,31864,26809,11013,5821,Tag0,unknown
1500042637343,0,73,1.6040039062500002E-5,50,34,37,957476,183505,21422,16772019,31864,26809,11013,5821,Tag0,unknown
1500042637344,0,98,2.1533203125E-5,50,34,37,957476,183505,21422,16772019,31864,26809,11013,5821,Tag0,unknown
1500042637345,0,-106,-2.3291015625000003E-5,50,34,37,957476,183505,21422,16772019,31864,26809,11013,5821,Tag0,unknown
1500042637345,0,-76,-1.669921875E-5,50,34,37,957476,183505,21422,16772019,31864,26809,11013,5821,Tag0,unknown
1500042637346,0,-116,-2.548828125E-5,50,34,37,957476,183505,21422,16772019,31864,26809,11013,5821,Tag0,unknown
1500042637347,0,84,1.8457031250000004E-5,50,34,37,957476,183505,21422,16772019,31864,26809,11013,5821,Tag0,unknown
1500042637348,0,83,1.82373046875E-5,50,34,37,957476,183505,21422,16772019,31864,26809,11013,5821,Tag0,unknown
1500042637348,0,-125,-2.74658203125E-5,50,34,37,957476,183505,21422,16772019,31864,26809,11013,5821,Tag0,unknown
1500042637349,0,-107,-2.35107421875E-5,50,34,37,957476,183505,21422,16772019,31864,26809,11013,5821,Tag0,unknown
1500042637350,0,99,2.1752929687500003E-5,50,34,37,957476,183505,21422,16772019,31864,26809,11013,5821,Tag0,unknown
1500042637350,0,48,1.0546875E-5,50,34,37,957476,183505,21422,16772019,31864,26809,11013,5821,Tag0,unknown
1500042637351,0,53,1.1645507812500002E-5,50,34,37,957476,183505,21422,16772019,31864,26809,11013,5821,Tag0,unknown
1500042637352,0,101,2.2192382812500002E-5,50,34,37,957476,183505,21422,16772019,31864,26809,11013,5821,Tag0,unknown
1500042637353,0,-119,-2.6147460937500004E-5,50,34,37,957476,183505,21422,16772019,31864,26809,11013,5821,Tag0,unknown
1500042637354,0,113,2.48291015625E-5,50,34,37,957476,183505,21422,16772019,31864,26809,11013,5821,Tag0,unknown
1500042637354,0,58,1.2744140625E-5,50,34,37,957476,183505,21422,16772019,31864,26809,11013,5821,Tag0,unknown
1500042637354,0,56,1.23046875E-5,50,34,37,957476,183505,21422,16772019,31864,26809,11013,5821,Tag0,unknown
1500042637355,0,112,2.4609375E-5,50,34,37,957476,183505,21422,16772019,31864,26809,11013,5821,Tag0,unknown
1500042637355,0,-93,-2.04345703125E-5,50,34,37,957476,183505,21422,16772019,31864,26809,11013,5821,Tag0,unknown
1500042637364,0,-95,-2.08740234375E-5,50,34,37,957476,183505,21422,16772019,31864,26809,11013,5821,Tag0,unknown
1500042637377,0,118,2.5927734375E-5,50,34,37,957476,183505,21422,16772019,31864,26809,11013,5821,Tag0,unknown
1500042637378,0,109,2.39501953125E-5,50,34,37,957476,183505,21422,16772019,31864,26809,11013,5821,Tag0,unknown
1500042637379,0,-101,-2.2192382812500002E-5,50,34,37,957476,183505,21422,16772019,31864,26809,11013,5821,Tag0,unknown
1500042637379,0,-41,-9.008789062499999E-6,50,34,37,957476,183505,21422,16772019,31864,26809,11013,5821,Tag0,unknown
1500042637380,0,-41,-9.008789062499999E-6,50,34,37,957476,183505,21422,16772019,31864,26809,11013,5821,Tag0,unknown
1500042637382,0,-105,-2.30712890625E-5,50,34,37,957476,183505,21422,16772019,31864,26809,11013,5821,Tag0,unknown
1500042637383,0,107,2.35107421875E-5,50,34,37,957476,183505,21422,16772019,31864,26809,11013,5821,Tag0,unknown
1500042637384,0,-124,-2.724609375E-5,50,34,37,957476,183505,21422,16772019,31864,26809,11013,5821,Tag0,unknown
1500042637385,0,-95,-2.08740234375E-5,50,34,37,957476,183505,21422,16772019,31864,26809,11013,5821,Tag0,unknown
1500042637385,0,118,2.5927734375E-5,50,34,37,957476,183505,21422,16772019,31864,26809,11013,5821,Tag0,unknown
1500042637386,0,36,7.91015625E-6,50,34,37,957476,183505,21422,16772019,31864,26809,11013,5821,Tag0,unknown
1500042637386,0,6,1.318359375E-6,50,34,37,957476,183505,21422,16772019,31864,26809,11013,5821,Tag0,unknown
1500042637387,0,69,1.51611328125E-5,50,34,37,957476,183505,21422,16772019,31864,26809,11013,5821,Tag0,unknown
1500042637387,0,-86,-1.8896484375000003E-5,50,34,37,957476,183505,21422,16772019,31864,26809,11013,5821,Tag0,unknown
1500042637388,0,-24,-5.2734375E-6,50,34,37,957476,183505,21422,16772019,31864,26809,11013,5821,Tag0,unknown
1500042637388,0,-58,-1.2744140625E-5,50,34,37,957476,183505,21422,16772019,31864,26809,11013,5821,Tag0,unknown
1500042637388,0,122,2.6806640625E-5,50,34,37,957476,183505,21422,16772019,31864,26809,11013,5821,Tag0,unknown
1500042637389,0,107,2.35107421875E-5,50,34,37,957476,183505,21422,16772019,31864,26809,11013,5821,Tag0,unknown
1500042637390,0,-85,-1.86767578125E-5,50,34,37,957476,183505,21422,16772019,31864,26809,11013,5821,Tag0,unknown
1500042637403,0,-9,-1.9775390625E-6,50,34,37,957476,183505,21422,16772019,31864,26809,11013,5821,Tag0,unknown
1500042637412,0,267,5.86669921875E-5,50,34,37,957476,183505,21422,16772019,31864,26809,11013,5821,Tag0,unknown
1500042637413,0,-16,-3.515625E-6,50,34,37,957476,183505,21422,16772019,31864,26809,11013,5821,Tag0,unknown
1500042637414,0,-28,-6.15234375E-6,50,34,37,957476,183505,21422,16772019,31864,26809,11013,5821,Tag0,unknown
1500042637415,0,-13,-2.8564453125E-6,50,34,37,957476,183505,21422,16772019,31864,26809,11013,5821,Tag0,unknown
1500042637415,0,-7,-1.5380859375E-6,50,34,37,957476,183505,21422,16772019,31864,26809,11013,5821,Tag0,unknown
1500042637416,0,-61,-1.34033203125E-5,50,34,37,957476,183505,21422,16772019,31864,26809,11013,5821,Tag0,unknown
1500042637417,0,-126,-2.7685546875E-5,50,34,37,957476,183505,21422,16772019,31864,26809,11013,5821,Tag0,unknown
1500042637418,0,-119,-2.6147460937500004E-5,50,34,37,957476,183505,21422,16772019,31864,26809,11013,5821,Tag0,unknown
1500042637419,0,-41,-9.008789062499999E-6,50,34,37,957476,183505,21422,16772019,31864,26809,11013,5821,Tag0,unknown
1500042637419,0,273,5.998535156250001E-5,50,34,37,957476,183505,21422,16772019,31864,26809,11013,5821,Tag0,unknown
1500042637420,0,-22,-4.833984375E-6,50,34,37,957476,183505,21422,16772019,31864,26809,11013,5821,Tag0,unknown
1500042637420,0,-108,-2.3730468750000002E-5,50,34,37,957476,183505,21422,16772019,31864,26809,11013,5821,Tag0,unknown
1500042637420,0,105,2.30712890625E-5,50,34,37,957476,183505,21422,16772019,31864,26809,11013,5821,Tag0,unknown
1500042637421,0,123,2.70263671875E-5,50,34,37,957476,183505,21422,16772019,31864,26809,11013,5821,Tag0,unknown
1500042637421,0,-103,-2.26318359375E-5,50,34,37,957476,183505,21422,16772019,31864,26809,11013,5821,Tag0,unknown
1500042637422,0,125,2.74658203125E-5,50,34,37,957476,183505,21422,16772019,31864,26809,11013,5821,Tag0,unknown
1500042637423,0,56,1.23046875E-5,50,34,37,957476,183505,21422,16772019,31864,26809,11013,5821,Tag0,unknown
1500042637424,0,36,7.91015625E-6,50,34,37,957476,183505,21422,16772019,31864,26809,11013,5821,Tag0,unknown
1500042637424,0,73,1.6040039062500002E-5,50,34,37,957476,183505,21422,16772019,31864,26809,11013,5821,Tag0,unknown
1500042637441,0,112,2.4609375E-5,50,34,37,957476,183505,21422,16772019,31864,26809,11013,5821,Tag0,unknown
1500042637460,0,98,2.1533203125E-5,50,34,37,957476,183505,21422,16772019,31864,26809,11013,5821,Tag0,unknown
1500042637461,0,36,7.91015625E-6,50,34,37,957476,183505,21422,16772019,31864,26809,11013,5821,Tag0,unknown
1500042637462,0,6,1.318359375E-6,50,34,37,957476,183505,21422,16772019,31864,26809,11013,5821,Tag0,unknown
1500042637462,0,40,8.7890625E-6,50,34,37,957476,183505,21422,16772019,31864,26809,11013,5821,Tag0,unknown
1500042637463,0,91,1.99951171875E-5,50,34,37,957476,183505,21422,16772019,31864,26809,11013,5821,Tag0,unknown
1500042637464,0,103,2.26318359375E-5,50,34,37,957476,183505,21422,16772019,31864,26809,11013,5821,Tag0,unknown
1500042637464,0,64,1.40625E-5,50,34,37,957476,183505,21422,16772019,31864,26809,11013,5821,Tag0,unknown
1500042637465,0,26,5.712890625E-6,50,34,37,957476,183505,21422,16772019,31864,26809,11013,5821,Tag0,unknown
1500042637465,0,40,8.7890625E-6,50,34,37,957476,183505,21422,16772019,31864,26809,11013,5821,Tag0,unknown
1500042637466,0,83,1.82373046875E-5,50,34,37,957476,183505,21422,16772019,31864,26809,11013,5821,Tag0,unknown
1500042637467,0,87,1.91162109375E-5,50,34,37,957476,183505,21422,16772019,31864,26809,11013,5821,Tag0,unknown
1500042637467,0,26,5.712890625E-6,50,34,37,957476,183505,21422,16772019,31864,26809,11013,5821,Tag0,unknown
1500042637467,0,-282,-6.1962890625E-5,50,34,37,957476,183505,21422,16772019,31864,26809,11013,5821,Tag0,unknown
1500042637468,0,-263,-5.7788085937500005E-5,50,34,37,957476,183505,21422,16772019,31864,26809,11013,5821,Tag0,unknown
1500042637468,0,48,1.0546875E-5,50,34,37,957476,183505,21422,16772019,31864,26809,11013,5821,Tag0,unknown
1500042637468,0,73,1.6040039062500002E-5,50,34,37,957476,183505,21422,16772019,31864,26809,11013,5821,Tag0,unknown
1500042637469,0,41,9.008789062499999E-6,50,34,37,957476,183505,21422,16772019,31864,26809,11013,5821,Tag0,unknown
1500042637469,0,-265,-5.82275390625E-5,50,34,37,957476,183505,21422,16772019,31864,26809,11013,5821,Tag0,unknown
1500042637470,0,-277,-6.0864257812500005E-5,50,34,37,957476,183505,21422,16772019,31864,26809,11013,5821,Tag0,unknown
1500042637521,0,5,1.0986328125E-6,50,34,37,957476,183505,21422,16772019,31864,26809,11013,5821,Tag0,unknown
1500042637529,0,25,5.4931640625E-6,50,34,37,957476,183505,21422,16772019,31864,26809,11013,5821,Tag0,unknown
1500042637530,0,5,1.0986328125E-6,50,34,37,957476,183505,21422,16772019,31864,26809,11013,5821,Tag0,unknown
1500042637530,0,-275,-6.04248046875E-5,50,34,37,957476,183505,21422,16772019,31864,26809,11013,5821,Tag0,unknown
1500042637531,0,-260,-5.712890625E-5,50,34,37,957476,183505,21422,16772019,31864,26809,11013,5821,Tag0,unknown
1500042637532,0,26,5.712890625E-6,50,34,37,957476,183505,21422,16772019,31864,26809,11013,5821,Tag0,unknown
1500042637533,0,41,9.008789062499999E-6,50,34,37,957476,183505,21422,16772019,31864,26809,11013,5821,Tag0,unknown
1500042637533,0,13,2.8564453125E-6,50,34,37,957476,183505,21422,16772019,31864,26809,11013,5821,Tag0,unknown
1500042637534,0,-286,-6.2841796875E-5,50,34,37,957476,183505,21422,16772019,31864,26809,11013,5821,Tag0,unknown
1500042637535,0,-295,-6.48193359375E-5,50,34,37,957476,183505,21422,16772019,31864,26809,11013,5821,Tag0,unknown
1500042637588,0,8,1.7578125E-6,50,34,37,957476,183505,21422,16772019,31864,26809,11013,5821,Tag0,unknown
1500042637596,0,67,1.4721679687500002E-5,50,34,37,957476,183505,21422,16772019,31864,26809,11013,5821,Tag0,unknown
1500042637597,0,74,1.6259765625E-5,50,34,37,957476,183505,21422,16772019,31864,26809,11013,5821,Tag0,unknown
1500042637598,0,51,1.1206054687499999E-5,50,34,37,957476,183505,21422,16772019,31864,26809,11013,5821,Tag0,unknown
1500042637598,0,43,9.448242187500001E-6,50,34,37,957476,183505,21422,16772019,31864,26809,11013,5821,Tag0,unknown
1500042637599,0,66,1.4501953125E-5,50,34,37,957476,183505,21422,16772019,31864,26809,11013,5821,Tag0,unknown
1500042637600,0,98,2.1533203125E-5,50,34,37,957476,183505,21422,16772019,31864,26809,11013,5821,Tag0,unknown
1500042637600,0,99,2.1752929687500003E-5,50,34,37,957476,183505,21422,16772019,31864,26809,11013,5821,Tag0,unknown
1500042637601,0,56,1.23046875E-5,50,34,37,957476,183505,21422,16772019,31864,26809,11013,5821,Tag0,unknown
1500042637602,0,22,4.833984375E-6,50,34,37,957476,183505,21422,16772019,31864,26809,11013,5821,Tag0,unknown
1500042637641,0,33,7.2509765625E-6,50,34,37,957476,183505,21422,16772019,31864,26809,11013,5821,Tag0,unknown
1500042637664,0,65,1.42822265625E-5,50,34,37,957476,183505,21422,16772019,31864,26809,11013,5821,Tag0,unknown
1500042637665,0,76,1.669921875E-5,50,34,37,957476,183505,21422,16772019,31864,26809,11013,5821,Tag0,unknown
1500042637666,0,42,9.228515625000002E-6,50,34,37,957476,183505,21422,16772019,31864,26809,11013,5821,Tag0,unknown
1500042637667,0,20,4.39453125E-6,50,34,37,957476,183505,21422,16772019,31864,26809,11013,5821,Tag0,unknown
1500042637667,0,48,1.0546875E-5,50,34,37,957476,183505,21422,16772019,31864,26809,11013,5821,Tag0,unknown
1500042637668,0,92,2.021484375E-5,50,34,37,957476,183505,21422,16772019,31864,26809,11013,5821,Tag0,unknown
1500042637669,0,105,2.30712890625E-5,50,34,37,957476,183505,21422,16772019,31864,26809,11013,5821,Tag0,unknown
1500042637670,0,42,9.228515625000002E-6,50,34,37,957476,183505,21422,16772019,31864,26809,11013,5821,Tag0,unknown
1500042637670,0,-274,-6.0205078124999997E-5,50,34,37,957476,183505,21422,16772019,31864,26809,11013,5821,Tag0,unknown
1500042637671,0,-278,-6.108398437500001E-5,50,34,37,957476,183505,21422,16772019,31864,26809,11013,5821,Tag0,unknown
1500042637672,0,6,1.318359375E-6,50,34,37,957476,183505,21422,16772019,31864,26809,11013,5821,Tag0,unknown
1500042637673,0,21,4.614257812500001E-6,50,34,37,957476,183505,21422,16772019,31864,26809,11013,5821,Tag0,unknown
1500042637674,0,-290,-6.3720703125E-5,50,34,37,957476,183505,21422,16772019,31864,26809,11013,5821,Tag0,unknown
1500042637674,0,-353,-7.75634765625E-5,50,34,37,957476,183505,21422,16772019,31864,26809,11013,5821,Tag0,unknown
1500042637675,0,-355,-7.80029296875E-5,50,34,37,957476,183505,21422,16772019,31864,26809,11013,5821,Tag0,unknown
1500042637676,0,-325,-7.14111328125E-5,50,34,37,957476,183505,21422,16772019,31864,26809,11013,5821,Tag0,unknown
1500042637677,0,-308,-6.767578125E-5,50,34,37,957476,183505,21422,16772019,31864,26809,11013,5821,Tag0,unknown
1500042637678,0,-361,-7.93212890625E-5,50,34,37,957476,183505,21422,16772019,31864,26809,11013,5821,Tag0,unknown
1500042637679,0,-170,-3.7353515625E-5,50,34,37,957476,183505,21422,16772019,31864,26809,11013,5821,Tag0,unknown
1500042637679,0,-152,-3.33984375E-5,50,34,37,957476,183505,21422,16772019,31864,26809,11013,5821,Tag0,unknown
1500042637680,0,-316,-6.943359375000001E-5,50,34,37,957476,183505,21422,16772019,31864,26809,11013,5821,Tag0,unknown
1500042637680,0,-260,-5.712890625E-5,50,34,37,957476,183505,21422,16772019,31864,26809,11013,5821,Tag0,unknown
1500042637681,0,-297,-6.525878906250001E-5,50,34,37,957476,183505,21422,16772019,31864,26809,11013,5821,Tag0,unknown
1500042637682,0,-129,-2.8344726562500002E-5,50,34,37,957476,183505,21422,16772019,31864,26809,11013,5821,Tag0,unknown
1500042637683,0,-157,-3.44970703125E-5,50,34,37,957476,183505,21422,16772019,31864,26809,11013,5821,Tag0,unknown
1500042637683,0,-369,-8.10791015625E-5,50,34,37,957476,183505,21422,16772019,31864,26809,11013,5821,Tag0,unknown
1500042637684,0,-317,-6.96533203125E-5,50,34,37,957476,183505,21422,16772019,31864,26809,11013,5821,Tag0,unknown
1500042637685,0,-329,-7.229003906250001E-5,50,34,37,957476,183505,21422,16772019,31864,26809,11013,5821,Tag0,unknown
1500042637685,0,-379,-8.32763671875E-5,50,34,37,957476,183505,21422,16772019,31864,26809,11013,5821,Tag0,unknown
1500042637686,0,-134,-2.9443359375000003E-5,50,34,37,957476,183505,21422,16772019,31864,26809,11013,5821,Tag0,unknown
1500042637686,0,-353,-7.75634765625E-5,50,34,37,957476,183505,21422,16772019,31864,26809,11013,5821,Tag0,unknown
1500042637687,0,-341,-7.492675781250002E-5,50,34,37,957476,183505,21422,16772019,31864,26809,11013,5821,Tag0,unknown
1500042637687,0,-130,-2.8564453125E-5,50,34,37,957476,183505,21422,16772019,31864,26809,11013,5821,Tag0,unknown
1500042637688,0,-193,-4.2407226562500005E-5,50,34,37,957476,183505,21422,16772019,31864,26809,11013,5821,Tag0,unknown
1500042637688,0,-213,-4.68017578125E-5,50,34,37,957476,183505,21422,16772019,31864,26809,11013,5821,Tag0,unknown
1500042637688,0,-188,-4.1308593750000004E-5,50,34,37,957476,183505,21422,16772019,31864,26809,11013,5821,Tag0,unknown
1500042637689,0,-152,-3.33984375E-5,50,34,37,957476,183505,21422,16772019,31864,26809,11013,5821,Tag0,unknown
1500042637689,0,-133,-2.92236328125E-5,50,34,37,957476,183505,21422,16772019,31864,26809,11013,5821,Tag0,unknown
1500042637689,0,-173,-3.80126953125E-5,50,34,37,957476,183505,21422,16772019,31864,26809,11013,5821,Tag0,unknown
1500042637690,0,-216,-4.7460937500000004E-5,50,34,37,957476,183505,21422,16772019,31864,26809,11013,5821,Tag0,unknown
1500042637690,0,-200,-4.39453125E-5,50,34,37,957476,183505,21422,16772019,31864,26809,11013,5821,Tag0,unknown
1500042637690,0,-155,-3.40576171875E-5,50,34,37,957476,183505,21422,16772019,31864,26809,11013,5821,Tag0,unknown
1500042637691,0,-137,-3.0102539062499998E-5,50,34,37,957476,183505,21422,16772019,31864,26809,11013,5821,Tag0,unknown
1500042637691,0,-178,-3.9111328125E-5,50,34,37,957476,183505,21422,16772019,31864,26809,11013,5821,Tag0,unknown
1500042637692,0,-190,-4.1748046875E-5,50,34,37,957476,183505,21422,16772019,31864,26809,11013,5821,Tag0,unknown
1500042637693,0,-150,-3.2958984375E-5,50,34,37,957476,183505,21422,16772019,31864,26809,11013,5821,Tag0,unknown
1500042637693,0,-353,-7.75634765625E-5,50,34,37,957476,183505,21422,16772019,31864,26809,11013,5821,Tag0,unknown
1500042637694,0,-338,-7.426757812499999E-5,50,34,37,957476,183505,21422,16772019,31864,26809,11013,5821,Tag0,unknown
1500042637694,0,-382,-8.3935546875E-5,50,34,37,957476,183505,21422,16772019,31864,26809,11013,5821,Tag0,unknown
1500042637694,0,-178,-3.9111328125E-5,50,34,37,957476,183505,21422,16772019,31864,26809,11013,5821,Tag0,unknown
1500042637695,0,-178,-3.9111328125E-5,50,34,37,957476,183505,21422,16772019,31864,26809,11013,5821,Tag0,unknown
1500042637695,0,-136,-2.9882812500000002E-5,50,34,37,957476,183505,21422,16772019,31864,26809,11013,5821,Tag0,unknown
1500042637700,0,-377,-8.28369140625E-5,50,34,37,957476,183505,21422,16772019,31864,26809,11013,5821,Tag0,unknown
1500042637700,0,-148,-3.251953125E-5,50,34,37,957476,183505,21422,16772019,31864,26809,11013,5821,Tag0,unknown
1500042637701,0,-152,-3.33984375E-5,50,34,37,957476,183505,21422,16772019,31864,26809,11013,5821,Tag0,unknown
1500042637702,0,-347,-7.62451171875E-5,50,34,37,957476,183505,21422,16772019,31864,26809,11013,5821,Tag0,unknown
1500042637703,0,-264,-5.80078125E-5,50,34,37,957476,183505,21422,16772019,31864,26809,11013,5821,Tag0,unknown
1500042637704,0,43,9.448242187500001E-6,50,34,37,957476,183505,21422,16772019,31864,26809,11013,5821,Tag0,unknown
1500042637704,0,34,7.4707031250000005E-6,50,34,37,957476,183505,21422,16772019,31864,26809,11013,5821,Tag0,unknown
1500042637705,0,-265,-5.82275390625E-5,50,34,37,957476,183505,21422,16772019,31864,26809,11013,5821,Tag0,unknown
1500042637705,0,-269,-5.9106445312499996E-5,50,34,37,957476,183505,21422,16772019,31864,26809,11013,5821,Tag0,unknown
1500042637706,0,24,5.2734375E-6,50,34,37,957476,183505,21422,16772019,31864,26809,11013,5821,Tag0,unknown
1500042637707,0,38,8.349609375E-6,50,34,37,957476,183505,21422,16772019,31864,26809,11013,5821,Tag0,unknown
1500042637708,0,2,4.39453125E-7,50,34,37,957476,183505,21422,16772019,31864,26809,11013,5821,Tag0,unknown
1500042637708,0,-302,-6.6357421875E-5,50,34,37,957476,183505,21422,16772019,31864,26809,11013,5821,Tag0,unknown
1500042637709,0,-296,-6.50390625E-5,50,34,37,957476,183505,21422,16772019,31864,26809,11013,5821,Tag0,unknown
1500042637709,0,19,4.1748046875E-6,50,34,37,957476,183505,21422,16772019,31864,26809,11013,5821,Tag0,unknown
1500042637710,0,77,1.69189453125E-5,50,34,37,957476,183505,21422,16772019,31864,26809,11013,5821,Tag0,unknown
1500042637710,0,87,1.91162109375E-5,50,34,37,957476,183505,21422,16772019,31864,26809,11013,5821,Tag0,unknown
1500042637711,0,44,9.66796875E-6,50,34,37,957476,183505,21422,16772019,31864,26809,11013,5821,Tag0,unknown
1500042637712,0,22,4.833984375E-6,50,34,37,957476,183505,21422,16772019,31864,26809,11013,5821,Tag0,unknown
1500042637713,0,58,1.2744140625E-5,50,34,37,957476,183505,21422,16772019,31864,26809,11013,5821,Tag0,unknown
1500042637714,0,108,2.3730468750000002E-5,50,34,37,957476,183505,21422,16772019,31864,26809,11013,5821,Tag0,unknown
1500042637715,0,115,2.52685546875E-5,50,34,37,957476,183505,21422,16772019,31864,26809,11013,5821,Tag0,unknown
1500042637715,0,68,1.4941406250000001E-5,50,34,37,957476,183505,21422,16772019,31864,26809,11013,5821,Tag0,unknown
1500042637716,0,53,1.1645507812500002E-5,50,34,37,957476,183505,21422,16772019,31864,26809,11013,5821,Tag0,unknown
1500042637716,0,105,2.30712890625E-5,50,34,37,957476,183505,21422,16772019,31864,26809,11013,5821,Tag0,unknown
1500042637717,0,-88,-1.93359375E-5,50,34,37,957476,183505,21422,16772019,31864,26809,11013,5821,Tag0,unknown
1500042637717,0,-93,-2.04345703125E-5,50,34,37,957476,183505,21422,16772019,31864,26809,11013,5821,Tag0,unknown
1500042637718,0,92,2.021484375E-5,50,34,37,957476,183505,21422,16772019,31864,26809,11013,5821,Tag0,unknown
1500042637718,0,54,1.1865234375000001E-5,50,34,37,957476,183505,21422,16772019,31864,26809,11013,5821,Tag0,unknown
1500042637718,0,83,1.82373046875E-5,50,34,37,957476,183505,21422,16772019,31864,26809,11013,5821,Tag0,unknown
1500042637719,0,-111,-2.43896484375E-5,50,34,37,957476,183505,21422,16772019,31864,26809,11013,5821,Tag0,unknown
1500042637719,0,-90,-1.9775390625E-5,50,34,37,957476,183505,21422,16772019,31864,26809,11013,5821,Tag0,unknown
1500042637719,0,116,2.548828125E-5,50,34,37,957476,183505,21422,16772019,31864,26809,11013,5821,Tag0,unknown
1500042637719,0,58,1.2744140625E-5,50,34,37,957476,183505,21422,16772019,31864,26809,11013,5821,Tag0,unknown
1500042637720,0,57,1.2524414062500001E-5,50,34,37,957476,183505,21422,16772019,31864,26809,11013,5821,Tag0,unknown
1500042637720,0,98,2.1533203125E-5,50,34,37,957476,183505,21422,16772019,31864,26809,11013,5821,Tag0,unknown
1500042637720,0,-121,-2.6586914062500003E-5,50,34,37,957476,183505,21422,16772019,31864,26809,11013,5821,Tag0,unknown
1500042637720,0,124,2.724609375E-5,50,34,37,957476,183505,21422,16772019,31864,26809,11013,5821,Tag0,unknown
1500042637721,0,75,1.64794921875E-5,50,34,37,957476,183505,21422,16772019,31864,26809,11013,5821,Tag0,unknown
1500042637721,0,50,1.0986328125E-5,50,34,37,957476,183505,21422,16772019,31864,26809,11013,5821,Tag0,unknown
1500042637722,0,66,1.4501953125E-5,50,34,37,957476,183505,21422,16772019,31864,26809,11013,5821,Tag0,unknown
1500042637722,0,71,1.56005859375E-5,50,34,37,957476,183505,21422,16772019,31864,26809,11013,5821,Tag0,unknown
1500042637723,0,37,8.1298828125E-6,50,34,37,957476,183505,21422,16772019,31864,26809,11013,5821,Tag0,unknown
1500042637723,0,10,2.197265625E-6,50,34,37,957476,183505,21422,16772019,31864,26809,11013,5821,Tag0,unknown
1500042637723,0,51,1.1206054687499999E-5,50,34,37,957476,183505,21422,16772019,31864,26809,11013,5821,Tag0,unknown
1500042637724,0,116,2.548828125E-5,50,34,37,957476,183505,21422,16772019,31864,26809,11013,5821,Tag0,unknown
1500042637724,0,-105,-2.30712890625E-5,50,34,37,957476,183505,21422,16772019,31864,26809,11013,5821,Tag0,unknown
1500042637726,0,-119,-2.6147460937500004E-5,50,34,37,957476,183505,21422,16772019,31864,26809,11013,5821,Tag0,unknown
1500042637727,0,100,2.197265625E-5,50,34,37,957476,183505,21422,16772019,31864,26809,11013,5821,Tag0,unknown
1500042637727,0,82,1.8017578124999998E-5,50,34,37,957476,183505,21422,16772019,31864,26809,11013,5821,Tag0,unknown
1500042637727,0,109,2.39501953125E-5,50,34,37,957476,183505,21422,16772019,31864,26809,11013,5821,Tag0,unknown
1500042637728,0,-106,-2.3291015625000003E-5,50,34,37,957476,183505,21422,16772019,31864,26809,11013,5821,Tag0,unknown
1500042637728,0,-106,-2.3291015625000003E-5,50,34,37,957476,183505,21422,16772019,31864,26809,11013,5821,Tag0,unknown
1500042637728,0,121,2.6586914062500003E-5,50,34,37,957476,183505,21422,16772019,31864,26809,11013,5821,Tag0,unknown
1500042637728,0,-123,-2.70263671875E-5,50,34,37,957476,183505,21422,16772019,31864,26809,11013,5821,Tag0,unknown
1500042637729,0,-90,-1.9775390625E-5,50,34,37,957476,183505,21422,16772019,31864,26809,11013,5821,Tag0,unknown
1500042637729,0,-60,-1.318359375E-5,50,34,37,957476,183505,21422,16772019,31864,26809,11013,5821,Tag0,unknown
1500042637729,0,-55,-1.20849609375E-5,50,34,37,957476,183505,21422,16772019,31864,26809,11013,5821,Tag0,unknown
1500042637729,0,-100,-2.197265625E-5,50,34,37,957476,183505,21422,16772019,31864,26809,11013,5821,Tag0,unknown
1500042637729,0,119,2.6147460937500004E-5,50,34,37,957476,183505,21422,16772019,31864,26809,11013,5821,Tag0,unknown
1500042637730,0,-125,-2.74658203125E-5,50,34,37,957476,183505,21422,16772019,31864,26809,11013,5821,Tag0,unknown
1500042637730,0,-63,-1.38427734375E-5,50,34,37,957476,183505,21422,16772019,31864,26809,11013,5821,Tag0,unknown
1500042637730,0,-27,-5.9326171875000005E-6,50,34,37,957476,183505,21422,16772019,31864,26809,11013,5821,Tag0,unknown
1500042637730,0,-55,-1.20849609375E-5,50,34,37,957476,183505,21422,16772019,31864,26809,11013,5821,Tag0,unknown
1500042637731,0,-85,-1.86767578125E-5,50,34,37,957476,183505,21422,16772019,31864,26809,11013,5821,Tag0,unknown
1500042637731,0,-69,-1.51611328125E-5,50,34,37,957476,183505,21422,16772019,31864,26809,11013,5821,Tag0,unknown
1500042637731,0,-25,-5.4931640625E-6,50,34,37,957476,183505,21422,16772019,31864,26809,11013,5821,Tag0,unknown
1500042637750,0,-6,-1.318359375E-6,50,34,37,957476,183505,21422,16772019,31864,26809,11013,5821,Tag0,unknown
1500042637751,0,-43,-9.448242187500001E-6,50,34,37,957476,183505,21422,16772019,31864,26809,11013,5821,Tag0,unknown
1500042637765,0,-89,-1.95556640625E-5,50,34,37,957476,183505,21422,16772019,31864,26809,11013,5821,Tag0,unknown
1500042637765,0,-94,-2.0654296875000002E-5,50,34,37,957476,183505,21422,16772019,31864,26809,11013,5821,Tag0,unknown
1500042637765,0,-68,-1.4941406250000001E-5,50,34,37,957476,183505,21422,16772019,31864,26809,11013,5821,Tag0,unknown
1500042637766,0,-54,-1.1865234375000001E-5,50,34,37,957476,183505,21422,16772019,31864,26809,11013,5821,Tag0,unknown
1500042637766,0,-75,-1.64794921875E-5,50,34,37,957476,183505,21422,16772019,31864,26809,11013,5821,Tag0,unknown
1500042637766,0,-101,-2.2192382812500002E-5,50,34,37,957476,183505,21422,16772019,31864,26809,11013,5821,Tag0,unknown
1500042637766,0,-85,-1.86767578125E-5,50,34,37,957476,183505,21422,16772019,31864,26809,11013,5821,Tag0,unknown
1500042637767,0,-37,-8.1298828125E-6,50,34,37,957476,183505,21422,16772019,31864,26809,11013,5821,Tag0,unknown
1500042637767,0,267,5.86669921875E-5,50,34,37,957476,183505,21422,16772019,31864,26809,11013,5821,Tag0,unknown
1500042637767,0,262,5.7568359375E-5,50,34,37,957476,183505,21422,16772019,31864,26809,11013,5821,Tag0,unknown
1500042637767,0,-27,-5.9326171875000005E-6,50,34,37,957476,183505,21422,16772019,31864,26809,11013,5821,Tag0,unknown
1500042637768,0,-23,-5.0537109375E-6,50,34,37,957476,183505,21422,16772019,31864,26809,11013,5821,Tag0,unknown
1500042637768,0,281,6.17431640625E-5,50,34,37,957476,183505,21422,16772019,31864,26809,11013,5821,Tag0,unknown
1500042637768,0,311,6.833496093750001E-5,50,34,37,957476,183505,21422,16772019,31864,26809,11013,5821,Tag0,unknown
1500042637768,0,282,6.1962890625E-5,50,34,37,957476,183505,21422,16772019,31864,26809,11013,5821,Tag0,unknown
1500042637769,0,-22,-4.833984375E-6,50,34,37,957476,183505,21422,16772019,31864,26809,11013,5821,Tag0,unknown
1500042637769,0,-25,-5.4931640625E-6,50,34,37,957476,183505,21422,16772019,31864,26809,11013,5821,Tag0,unknown
1500042637769,0,258,5.6689453125000004E-5,50,34,37,957476,183505,21422,16772019,31864,26809,11013,5821,Tag0,unknown
1500042637790,0,283,6.218261718750001E-5,50,34,37,957476,183505,21422,16772019,31864,26809,11013,5821,Tag0,unknown
1500042637791,0,278,6.108398437500001E-5,50,34,37,957476,183505,21422,16772019,31864,26809,11013,5821,Tag0,unknown
1500042637799,0,-30,-6.591796875E-6,50,34,37,957476,183505,21422,16772019,31864,26809,11013,5821,Tag0,unknown
1500042637799,0,-71,-1.56005859375E-5,50,34,37,957476,183505,21422,16772019,31864,26809,11013,5821,Tag0,unknown
1500042637800,0,-53,-1.1645507812500002E-5,50,34,37,957476,183505,21422,16772019,31864,26809,11013,5821,Tag0,unknown
1500042637801,0,-20,-4.39453125E-6,50,34,37,957476,183505,21422,16772019,31864,26809,11013,5821,Tag0,unknown
1500042637802,0,-30,-6.591796875E-6,50,34,37,957476,183505,21422,16772019,31864,26809,11013,5821,Tag0,unknown
1500042637803,0,-83,-1.82373046875E-5,50,34,37,957476,183505,21422,16772019,31864,26809,11013,5821,Tag0,unknown
1500042637804,0,-106,-2.3291015625000003E-5,50,34,37,957476,183505,21422,16772019,31864,26809,11013,5821,Tag0,unknown
1500042637804,0,-75,-1.64794921875E-5,50,34,37,957476,183505,21422,16772019,31864,26809,11013,5821,Tag0,unknown
1500042637805,0,-25,-5.4931640625E-6,50,34,37,957476,183505,21422,16772019,31864,26809,11013,5821,Tag0,unknown
1500042637806,0,-9,-1.9775390625E-6,50,34,37,957476,183505,21422,16772019,31864,26809,11013,5821,Tag0,unknown
1500042637806,0,-57,-1.2524414062500001E-5,50,34,37,957476,183505,21422,16772019,31864,26809,11013,5821,Tag0,unknown
1500042637807,0,-116,-2.548828125E-5,50,34,37,957476,183505,21422,16772019,31864,26809,11013,5821,Tag0,unknown
1500042637807,0,-120,-2.63671875E-5,50,34,37,957476,183505,21422,16772019,31864,26809,11013,5821,Tag0,unknown
1500042637808,0,-85,-1.86767578125E-5,50,34,37,957476,183505,21422,16772019,31864,26809,11013,5821,Tag0,unknown
1500042637808,0,-71,-1.56005859375E-5,50,34,37,957476,183505,21422,16772019,31864,26809,11013,5821,Tag0,unknown
1500042637808,0,-102,-2.2412109374999998E-5,50,34,37,957476,183505,21422,16772019,31864,26809,11013,5821,Tag0,unknown
1500042637809,0,124,2.724609375E-5,50,34,37,957476,183505,21422,16772019,31864,26809,11013,5821,Tag0,unknown
1500042637809,0,-116,-2.548828125E-5,50,34,37,957476,183505,21422,16772019,31864,26809,11013,5821,Tag0,unknown
1500042637830,0,-70,-1.5380859375E-5,50,34,37,957476,183505,21422,16772019,31864,26809,11013,5821,Tag0,unknown
1500042637848,0,-48,-1.0546875E-5,50,34,37,957476,183505,21422,16772019,31864,26809,11013,5821,Tag0,unknown
1500042637849,0,-96,-2.109375E-5,50,34,37,957476,183505,21422,16772019,31864,26809,11013,5821,Tag0,unknown
1500042637850,0,80,1.7578125E-5,50,34,37,957476,183505,21422,16772019,31864,26809,11013,5821,Tag0,unknown
1500042637850,0,54,1.1865234375000001E-5,50,34,37,957476,183505,21422,16772019,31864,26809,11013,5821,Tag0,unknown
1500042637851,0,112,2.4609375E-5,50,34,37,957476,183505,21422,16772019,31864,26809,11013,5821,Tag0,unknown
1500042637852,0,-100,-2.197265625E-5,50,34,37,957476,183505,21422,16772019,31864,26809,11013,5821,Tag0,unknown
1500042637853,0,-125,-2.74658203125E-5,50,34,37,957476,183505,21422,16772019,31864,26809,11013,5821,Tag0,unknown
1500042637854,0,84,1.8457031250000004E-5,50,34,37,957476,183505,21422,16772019,31864,26809,11013,5821,Tag0,unknown
1500042637855,0,86,1.8896484375000003E-5,50,34,37,957476,183505,21422,16772019,31864,26809,11013,5821,Tag0,unknown
1500042637855,0,-116,-2.548828125E-5,50,34,37,957476,183505,21422,16772019,31864,26809,11013,5821,Tag0,unknown
1500042637856,0,-69,-1.51611328125E-5,50,34,37,957476,183505,21422,16772019,31864,26809,11013,5821,Tag0,unknown
1500042637857,0,-79,-1.7358398437500003E-5,50,34,37,957476,183505,21422,16772019,31864,26809,11013,5821,Tag0,unknown
1500042637858,0,119,2.6147460937500004E-5,50,34,37,957476,183505,21422,16772019,31864,26809,11013,5821,Tag0,unknown
1500042637858,0,98,2.1533203125E-5,50,34,37,957476,183505,21422,16772019,31864,26809,11013,5821,Tag0,unknown
1500042637859,0,-117,-2.5708007812499998E-5,50,34,37,957476,183505,21422,16772019,31864,26809,11013,5821,Tag0,unknown
1500042637860,0,-72,-1.58203125E-5,50,34,37,957476,183505,21422,16772019,31864,26809,11013,5821,Tag0,unknown
1500042637860,0,-86,-1.8896484375000003E-5,50,34,37,957476,183505,21422,16772019,31864,26809,11013,5821,Tag0,unknown
1500042637860,0,116,2.548828125E-5,50,34,37,957476,183505,21422,16772019,31864,26809,11013,5821,Tag0,unknown
1500042637862,0,91,1.99951171875E-5,50,34,37,957476,183505,21422,16772019,31864,26809,11013,5821,Tag0,unknown
1500042637868,0,115,2.52685546875E-5,50,34,37,957476,183505,21422,16772019,31864,26809,11013,5821,Tag0,unknown
1500042637882,0,-104,-2.28515625E-5,50,34,37,957476,183505,21422,16772019,31864,26809,11013,5821,Tag0,unknown
1500042637883,0,-102,-2.2412109374999998E-5,50,34,37,957476,183505,21422,16772019,31864,26809,11013,5821,Tag0,unknown
1500042637884,0,107,2.35107421875E-5,50,34,37,957476,183505,21422,16772019,31864,26809,11013,5821,Tag0,unknown
1500042637884,0,89,1.95556640625E-5,50,34,37,957476,183505,21422,16772019,31864,26809,11013,5821,Tag0,unknown
1500042637885,0,122,2.6806640625E-5,50,34,37,957476,183505,21422,16772019,31864,26809,11013,5821,Tag0,unknown
1500042637886,0,-85,-1.86767578125E-5,50,34,37,957476,183505,21422,16772019,31864,26809,11013,5821,Tag0,unknown
1500042637886,0,-77,-1.69189453125E-5,50,34,37,957476,183505,21422,16772019,31864,26809,11013,5821,Tag0,unknown
1500042637887,0,125,2.74658203125E-5,50,34,37,957476,183505,21422,16772019,31864,26809,11013,5821,Tag0,unknown
1500042637888,0,101,2.2192382812500002E-5,50,34,37,957476,183505,21422,16772019,31864,26809,11013,5821,Tag0,unknown
1500042637888,0,-116,-2.548828125E-5,50,34,37,957476,183505,21422,16772019,31864,26809,11013,5821,Tag0,unknown
1500042637889,0,-67,-1.4721679687500002E-5,50,34,37,957476,183505,21422,16772019,31864,26809,11013,5821,Tag0,unknown
1500042637890,0,-60,-1.318359375E-5,50,34,37,957476,183505,21422,16772019,31864,26809,11013,5821,Tag0,unknown
1500042637890,0,-121,-2.6586914062500003E-5,50,34,37,957476,183505,21422,16772019,31864,26809,11013,5821,Tag0,unknown
1500042637890,0,83,1.82373046875E-5,50,34,37,957476,183505,21422,16772019,31864,26809,11013,5821,Tag0,unknown
1500042637891,0,82,1.8017578124999998E-5,50,34,37,957476,183505,21422,16772019,31864,26809,11013,5821,Tag0,unknown
1500042637891,0,116,2.548828125E-5,50,34,37,957476,183505,21422,16772019,31864,26809,11013,5821,Tag0,unknown
1500042637892,0,124,2.724609375E-5,50,34,37,957476,183505,21422,16772019,31864,26809,11013,5821,Tag0,unknown
1500042637892,0,80,1.7578125E-5,50,34,37,957476,183505,21422,16772019,31864,26809,11013,5821,Tag0,unknown
1500042637893,0,23,5.0537109375E-6,50,34,37,957476,183505,21422,16772019,31864,26809,11013,5821,Tag0,unknown
1500042637906,0,25,5.4931640625E-6,50,34,37,957476,183505,21422,16772019,31864,26809,11013,5821,Tag0,unknown
1500042637917,0,73,1.6040039062500002E-5,50,34,37,957476,183505,21422,16772019,31864,26809,11013,5821,Tag0,unknown
1500042637917,0,-124,-2.724609375E-5,50,34,37,957476,183505,21422,16772019,31864,26809,11013,5821,Tag0,unknown
1500042637918,0,123,2.70263671875E-5,50,34,37,957476,183505,21422,16772019,31864,26809,11013,5821,Tag0,unknown
1500042637919,0,66,1.4501953125E-5,50,34,37,957476,183505,21422,16772019,31864,26809,11013,5821,Tag0,unknown
1500042637919,0,38,8.349609375E-6,50,34,37,957476,183505,21422,16772019,31864,26809,11013,5821,Tag0,unknown
1500042637920,0,69,1.51611328125E-5,50,34,37,957476,183505,21422,16772019,31864,26809,11013,5821,Tag0,unknown
1500042637921,0,108,2.3730468750000002E-5,50,34,37,957476,183505,21422,16772019,31864,26809,11013,5821,Tag0,unknown
1500042637921,0,103,2.26318359375E-5,50,34,37,957476,183505,21422,16772019,31864,26809,11013,5821,Tag0,unknown
1500042637922,0,61,1.34033203125E-5,50,34,37,957476,183505,21422,16772019,31864,26809,11013,5821,Tag0,unknown
1500042637923,0,55,1.20849609375E-5,50,34,37,957476,183505,21422,16772019,31864,26809,11013,5821,Tag0,unknown
1500042637923,0,93,2.04345703125E-5,50,34,37,957476,183505,21422,16772019,31864,26809,11013,5821,Tag0,unknown
1500042637924,0,-124,-2.724609375E-5,50,34,37,957476,183505,21422,16772019,31864,26809,11013,5821,Tag0,unknown
1500042637925,0,123,2.70263671875E-5,50,34,37,957476,183505,21422,16772019,31864,26809,11013,5821,Tag0,unknown
1500042637926,0,73,1.6040039062500002E-5,50,34,37,957476,183505,21422,16772019,31864,26809,11013,5821,Tag0,unknown
1500042637926,0,39,8.5693359375E-6,50,34,37,957476,183505,21422,16772019,31864,26809,11013,5821,Tag0,unknown
1500042637926,0,52,1.142578125E-5,50,34,37,957476,183505,21422,16772019,31864,26809,11013,5821,Tag0,unknown
1500042637927,0,80,1.7578125E-5,50,34,37,957476,183505,21422,16772019,31864,26809,11013,5821,Tag0,unknown
1500042637927,0,72,1.58203125E-5,50,34,37,957476,183505,21422,16772019,31864,26809,11013,5821,Tag0,unknown
1500042637929,0,33,7.2509765625E-6,50,34,37,957476,183505,21422,16772019,31864,26809,11013,5821,Tag0,unknown
1500042637948,0,21,4.614257812500001E-6,50,34,37,957476,183505,21422,16772019,31864,26809,11013,5821,Tag0,unknown
1500042637949,0,54,1.1865234375000001E-5,50,34,37,957476,183505,21422,16772019,31864,26809,11013,5821,Tag0,unknown
1500042637950,0,83,1.82373046875E-5,50,34,37,957476,183505,21422,16772019,31864,26809,11013,5821,Tag0,unknown
1500042637968,0,76,1.669921875E-5,50,34,37,957476,183505,21422,16772019,31864,26809,11013,5821,Tag0,unknown
1500042637968,0,35,7.6904296875E-6,50,34,37,957476,183505,21422,16772019,31864,26809,11013,5821,Tag0,unknown
1500042637969,0,-259,-5.69091796875E-5,50,34,37,957476,183505,21422,16772019,31864,26809,11013,5821,Tag0,unknown
1500042637970,0,13,2.8564453125E-6,50,34,37,957476,183505,21422,16772019,31864,26809,11013,5821,Tag0,unknown
1500042637971,0,70,1.5380859375E-5,50,34,37,957476,183505,21422,16772019,31864,26809,11013,5821,Tag0,unknown
1500042637972,0,86,1.8896484375000003E-5,50,34,37,957476,183505,21422,16772019,31864,26809,11013,5821,Tag0,unknown
1500042637973,0,42,9.228515625000002E-6,50,34,37,957476,183505,21422,16772019,31864,26809,11013,5821,Tag0,unknown
1500042637974,0,4,8.7890625E-7,50,34,37,957476,183505,21422,16772019,31864,26809,11013,5821,Tag0,unknown
1500042637975,0,19,4.1748046875E-6,50,34,37,957476,183505,21422,16772019,31864,26809,11013,5821,Tag0,unknown
1500042637976,0,60,1.318359375E-5,50,34,37,957476,183505,21422,16772019,31864,26809,11013,5821,Tag0,unknown
1500042637977,0,81,1.77978515625E-5,50,34,37,957476,183505,21422,16772019,31864,26809,11013,5821,Tag0,unknown
1500042637978,0,36,7.91015625E-6,50,34,37,957476,183505,21422,16772019,31864,26809,11013,5821,Tag0,unknown
1500042637980,0,-282,-6.1962890625E-5,50,34,37,957476,183505,21422,16772019,31864,26809,11013,5821,Tag0,unknown
1500042637981,0,-298,-6.5478515625E-5,50,34,37,957476,183505,21422,16772019,31864,26809,11013,5821,Tag0,unknown
1500042637982,0,1,2.197265625E-7,50,34,37,957476,183505,21422,16772019,31864,26809,11013,5821,Tag0,unknown
1500042637983,0,48,1.0546875E-5,50,34,37,957476,183505,21422,16772019,31864,26809,11013,5821,Tag0,unknown
1500042637984,0,48,1.0546875E-5,50,34,37,957476,183505,21422,16772019,31864,26809,11013,5821,Tag0,unknown
1500042637993,0,22,4.833984375E-6,50,34,37,957476,183505,21422,16772019,31864,26809,11013,5821,Tag0,unknown
1500042637994,0,21,4.614257812500001E-6,50,34,37,957476,183505,21422,16772019,31864,26809,11013,5821,Tag0,unknown
1500042637995,0,41,9.008789062499999E-6,50,34,37,957476,183505,21422,16772019,31864,26809,11013,5821,Tag0,unknown
1500042637996,0,53,1.1645507812500002E-5,50,34,37,957476,183505,21422,16772019,31864,26809,11013,5821,Tag0,unknown
1500042637997,0,35,7.6904296875E-6,50,34,37,957476,183505,21422,16772019,31864,26809,11013,5821,Tag0,unknown
1500042637997,0,2,4.39453125E-7,50,34,37,957476,183505,21422,16772019,31864,26809,11013,5821,Tag0,unknown
1500042637998,0,0,0.0,50,34,37,957476,183505,21422,16772019,31864,26809,11013,5821,Tag0,unknown
1500042637999,0,34,7.4707031250000005E-6,50,34,37,957476,183505,21422,16772019,31864,26809,11013,5821,Tag0,unknown
1500042637999,0,55,1.20849609375E-5,50,34,37,957476,183505,21422,16772019,31864,26809,11013,5821,Tag0,unknown
1500042638000,0,29,6.3720703125E-6,50,34,37,957476,183505,21422,16772019,31864,26809,11013,5821,Tag0,unknown
1500042638000,0,-279,-6.13037109375E-5,50,34,37,957476,183505,21422,16772019,31864,26809,11013,5821,Tag0,unknown
1500042638010,0,-296,-6.50390625E-5,50,34,37,957476,183505,21422,16772019,31864,26809,11013,5821,Tag0,unknown
1500042638010,0,-265,-5.82275390625E-5,50,34,37,957476,183505,21422,16772019,31864,26809,11013,5821,Tag0,unknown
1500042638011,0,28,6.15234375E-6,50,34,37,957476,183505,21422,16772019,31864,26809,11013,5821,Tag0,unknown
1500042638011,0,33,7.2509765625E-6,50,34,37,957476,183505,21422,16772019,31864,26809,11013,5821,Tag0,unknown
1500042638012,0,-264,-5.80078125E-5,50,34,37,957476,183505,21422,16772019,31864,26809,11013,5821,Tag0,unknown
1500042638013,0,-311,-6.833496093750001E-5,50,34,37,957476,183505,21422,16772019,31864,26809,11013,5821,Tag0,unknown
1500042638014,0,-324,-7.119140625E-5,50,34,37,957476,183505,21422,16772019,31864,26809,11013,5821,Tag0,unknown
1500042638014,0,-305,-6.70166015625E-5,50,34,37,957476,183505,21422,16772019,31864,26809,11013,5821,Tag0,unknown
1500042638015,0,-307,-6.74560546875E-5,50,34,37,957476,183505,21422,16772019,31864,26809,11013,5821,Tag0,unknown
1500042638023,0,-348,-7.646484375E-5,50,34,37,957476,183505,21422,16772019,31864,26809,11013,5821,Tag0,unknown
1500042638034,0,-370,-8.1298828125E-5,50,34,37,957476,183505,21422,16772019,31864,26809,11013,5821,Tag0,unknown
1500042638035,0,-339,-7.448730468750001E-5,50,34,37,957476,183505,21422,16772019,31864,26809,11013,5821,Tag0,unknown
1500042638035,0,-298,-6.5478515625E-5,50,34,37,957476,183505,21422,16772019,31864,26809,11013,5821,Tag0,unknown
1500042638036,0,-279,-6.13037109375E-5,50,34,37,957476,183505,21422,16772019,31864,26809,11013,5821,Tag0,unknown
1500042638037,0,-301,-6.613769531250001E-5,50,34,37,957476,183505,21422,16772019,31864,26809,11013,5821,Tag0,unknown
1500042638037,0,-311,-6.833496093750001E-5,50,34,37,957476,183505,21422,16772019,31864,26809,11013,5821,Tag0,unknown
1500042638038,0,-284,-6.240234375E-5,50,34,37,957476,183505,21422,16772019,31864,26809,11013,5821,Tag0,unknown
1500042638038,0,10,2.197265625E-6,50,34,37,957476,183505,21422,16772019,31864,26809,11013,5821,Tag0,unknown
1500042638039,0,38,8.349609375E-6,50,34,37,957476,183505,21422,16772019,31864,26809,11013,5821,Tag0,unknown
1500042638039,0,19,4.1748046875E-6,50,34,37,957476,183505,21422,16772019,31864,26809,11013,5821,Tag0,unknown
1500042638040,0,-281,-6.17431640625E-5,50,34,37,957476,183505,21422,16772019,31864,26809,11013,5821,Tag0,unknown
1500042638040,0,-277,-6.0864257812500005E-5,50,34,37,957476,183505,21422,16772019,31864,26809,11013,5821,Tag0,unknown
1500042638040,0,12,2.63671875E-6,50,34,37,957476,183505,21422,16772019,31864,26809,11013,5821,Tag0,unknown
1500042638040,0,36,7.91015625E-6,50,34,37,957476,183505,21422,16772019,31864,26809,11013,5821,Tag0,unknown
1500042638041,0,2,4.39453125E-7,50,34,37,957476,183505,21422,16772019,31864,26809,11013,5821,Tag0,unknown
1500042638041,0,-322,-7.0751953125E-5,50,34,37,957476,183505,21422,16772019,31864,26809,11013,5821,Tag0,unknown
1500042638041,0,-361,-7.93212890625E-5,50,34,37,957476,183505,21422,16772019,31864,26809,11013,5821,Tag0,unknown
1500042638042,0,-342,-7.5146484375E-5,50,34,37,957476,183505,21422,16772019,31864,26809,11013,5821,Tag0,unknown
1500042638042,0,-330,-7.2509765625E-5,50,34,37,957476,183505,21422,16772019,31864,26809,11013,5821,Tag0,unknown
1500042638063,0,-374,-8.2177734375E-5,50,34,37,957476,183505,21422,16772019,31864,26809,11013,5821,Tag0,unknown
1500042638087,0,-170,-3.7353515625E-5,50,34,37,957476,183505,21422,16772019,31864,26809,11013,5821,Tag0,unknown
1500042638088,0,-161,-3.53759765625E-5,50,34,37,957476,183505,21422,16772019,31864,26809,11013,5821,Tag0,unknown
1500042638089,0,-371,-8.151855468750001E-5,50,34,37,957476,183505,21422,16772019,31864,26809,11013,5821,Tag0,unknown
1500042638090,0,-348,-7.646484375E-5,50,34,37,957476,183505,21422,16772019,31864,26809,11013,5821,Tag0,unknown
1500042638091,0,-363,-7.97607421875E-5,50,34,37,957476,183505,21422,16772019,31864,26809,11013,5821,Tag0,unknown
1500042638092,0,-146,-3.2080078125000004E-5,50,34,37,957476,183505,21422,16772019,31864,26809,11013,5821,Tag0,unknown
1500042638093,0,-169,-3.7133789062499996E-5,50,34,37,957476,183505,21422,16772019,31864,26809,11013,5821,Tag0,unknown
1500042638094,0,-150,-3.2958984375E-5,50,34,37,957476,183505,21422,16772019,31864,26809,11013,5821,Tag0,unknown
1500042638094,0,-364,-7.998046875E-5,50,34,37,957476,183505,21422,16772019,31864,26809,11013,5821,Tag0,unknown
1500042638095,0,-354,-7.778320312500001E-5,50,34,37,957476,183505,21422,16772019,31864,26809,11013,5821,Tag0,unknown
1500042638096,0,-129,-2.8344726562500002E-5,50,34,37,957476,183505,21422,16772019,31864,26809,11013,5821,Tag0,unknown
1500042638098,0,-150,-3.2958984375E-5,50,34,37,957476,183505,21422,16772019,31864,26809,11013,5821,Tag0,unknown
1500042638099,0,-380,-8.349609375E-5,50,34,37,957476,183505,21422,16772019,31864,26809,11013,5821,Tag0,unknown
1500042638099,0,-330,-7.2509765625E-5,50,34,37,957476,183505,21422,16772019,31864,26809,11013,5821,Tag0,unknown
1500042638100,0,-296,-6.50390625E-5,50,34,37,957476,183505,21422,16772019,31864,26809,11013,5821,Tag0,unknown
1500042638100,0,-318,-6.9873046875E-5,50,34,37,957476,183505,21422,16772019,31864,26809,11013,5821,Tag0,unknown
1500042638100,0,-365,-8.02001953125E-5,50,34,37,957476,183505,21422,16772019,31864,26809,11013,5821,Tag0,unknown
1500042638101,0,-380,-8.349609375E-5,50,34,37,957476,183505,21422,16772019,31864,26809,11013,5821,Tag0,unknown
1500042638101,0,-348,-7.646484375E-5,50,34,37,957476,183505,21422,16772019,31864,26809,11013,5821,Tag0,unknown
1500042638112,0,-310,-6.8115234375E-5,50,34,37,957476,183505,21422,16772019,31864,26809,11013,5821,Tag0,unknown
1500042638119,0,-313,-6.87744140625E-5,50,34,37,957476,183505,21422,16772019,31864,26809,11013,5821,Tag0,unknown
1500042638119,0,-347,-7.62451171875E-5,50,34,37,957476,183505,21422,16772019,31864,26809,11013,5821,Tag0,unknown
1500042638120,0,-359,-7.88818359375E-5,50,34,37,957476,183505,21422,16772019,31864,26809,11013,5821,Tag0,unknown
1500042638121,0,-345,-7.58056640625E-5,50,34,37,957476,183505,21422,16772019,31864,26809,11013,5821,Tag0,unknown
1500042638121,0,-327,-7.18505859375E-5,50,34,37,957476,183505,21422,16772019,31864,26809,11013,5821,Tag0,unknown
1500042638122,0,-346,-7.6025390625E-5,50,34,37,957476,183505,21422,16772019,31864,26809,11013,5821,Tag0,unknown
1500042638123,0,-381,-8.371582031250001E-5,50,34,37,957476,183505,21422,16772019,31864,26809,11013,5821,Tag0,unknown
1500042638123,0,-130,-2.8564453125E-5,50,34,37,957476,183505,21422,16772019,31864,26809,11013,5821,Tag0,unknown
1500042638124,0,-347,-7.62451171875E-5,50,34,37,957476,183505,21422,16772019,31864,26809,11013,5821,Tag0,unknown
1500042638125,0,-311,-6.833496093750001E-5,50,34,37,957476,183505,21422,16772019,31864,26809,11013,5821,Tag0,unknown
1500042638126,0,-331,-7.272949218750001E-5,50,34,37,957476,183505,21422,16772019,31864,26809,11013,5821,Tag0,unknown
1500042638126,0,-130,-2.8564453125E-5,50,34,37,957476,183505,21422,16772019,31864,26809,11013,5821,Tag0,unknown
1500042638127,0,-379,-8.32763671875E-5,50,34,37,957476,183505,21422,16772019,31864,26809,11013,5821,Tag0,unknown
1500042638127,0,-333,-7.316894531249999E-5,50,34,37,957476,183505,21422,16772019,31864,26809,11013,5821,Tag0,unknown
1500042638128,0,-295,-6.48193359375E-5,50,34,37,957476,183505,21422,16772019,31864,26809,11013,5821,Tag0,unknown
1500042638128,0,-293,-6.43798828125E-5,50,34,37,957476,183505,21422,16772019,31864,26809,11013,5821,Tag0,unknown
1500042638129,0,-310,-6.8115234375E-5,50,34,37,957476,183505,21422,16772019,31864,26809,11013,5821,Tag0,unknown
1500042638129,0,-306,-6.723632812500001E-5,50,34,37,957476,183505,21422,16772019,31864,26809,11013,5821,Tag0,unknown
1500042638130,0,-267,-5.86669921875E-5,50,34,37,957476,183505,21422,16772019,31864,26809,11013,5821,Tag0,unknown
1500042638149,0,12,2.63671875E-6,50,34,37,957476,183505,21422,16772019,31864,26809,11013,5821,Tag0,unknown
1500042638169,0,9,1.9775390625E-6,50,34,37,957476,183505,21422,16772019,31864,26809,11013,5821,Tag0,unknown
1500042638169,0,-269,-5.9106445312499996E-5,50,34,37,957476,183505,21422,16772019,31864,26809,11013,5821,Tag0,unknown
1500042638170,0,-265,-5.82275390625E-5,50,34,37,957476,183505,21422,16772019,31864,26809,11013,5821,Tag0,unknown
1500042638171,0,27,5.9326171875000005E-6,50,34,37,957476,183505,21422,16772019,31864,26809,11013,5821,Tag0,unknown
1500042638172,0,73,1.6040039062500002E-5,50,34,37,957476,183505,21422,16772019,31864,26809,11013,5821,Tag0,unknown
1500042638173,0,92,2.021484375E-5,50,34,37,957476,183505,21422,16772019,31864,26809,11013,5821,Tag0,unknown
1500042638173,0,66,1.4501953125E-5,50,34,37,957476,183505,21422,16772019,31864,26809,11013,5821,Tag0,unknown
1500042638174,0,35,7.6904296875E-6,50,34,37,957476,183505,21422,16772019,31864,26809,11013,5821,Tag0,unknown
1500042638175,0,41,9.008789062499999E-6,50,34,37,957476,183505,21422,16772019,31864,26809,11013,5821,Tag0,unknown
1500042638175,0,75,1.64794921875E-5,50,34,37,957476,183505,21422,16772019,31864,26809,11013,5821,Tag0,unknown
1500042638176,0,85,1.86767578125E-5,50,34,37,957476,183505,21422,16772019,31864,26809,11013,5821,Tag0,unknown
1500042638177,0,48,1.0546875E-5,50,34,37,957476,183505,21422,16772019,31864,26809,11013,5821,Tag0,unknown
1500042638177,0,26,5.712890625E-6,50,34,37,957476,183505,21422,16772019,31864,26809,11013,5821,Tag0,unknown
1500042638178,0,51,1.1206054687499999E-5,50,34,37,957476,183505,21422,16772019,31864,26809,11013,5821,Tag0,unknown
1500042638179,0,82,1.8017578124999998E-5,50,34,37,957476,183505,21422,16772019,31864,26809,11013,5821,Tag0,unknown
1500042638179,0,105,2.30712890625E-5,50,34,37,957476,183505,21422,16772019,31864,26809,11013,5821,Tag0,unknown
1500042638179,0,88,1.93359375E-5,50,34,37,957476,183505,21422,16772019,31864,26809,11013,5821,Tag0,unknown
1500042638180,0,56,1.23046875E-5,50,34,37,957476,183505,21422,16772019,31864,26809,11013,5821,Tag0,unknown
1500042638180,0,80,1.7578125E-5,50,34,37,957476,183505,21422,16772019,31864,26809,11013,5821,Tag0,unknown
1500042638187,0,-111,-2.43896484375E-5,50,34,37,957476,183505,21422,16772019,31864,26809,11013,5821,Tag0,unknown
1500042638188,0,-89,-1.95556640625E-5,50,34,37,957476,183505,21422,16772019,31864,26809,11013,5821,Tag0,unknown
1500042638203,0,-125,-2.74658203125E-5,50,34,37,957476,183505,21422,16772019,31864,26809,11013,5821,Tag0,unknown
1500042638203,0,108,2.3730468750000002E-5,50,34,37,957476,183505,21422,16772019,31864,26809,11013,5821,Tag0,unknown
1500042638204,0,-106,-2.3291015625000003E-5,50,34,37,957476,183505,21422,16772019,31864,26809,11013,5821,Tag0,unknown
1500042638205,0,-68,-1.4941406250000001E-5,50,34,37,957476,183505,21422,16772019,31864,26809,11013,5821,Tag0,unknown
1500042638205,0,-76,-1.669921875E-5,50,34,37,957476,183505,21422,16772019,31864,26809,11013,5821,Tag0,unknown
1500042638206,0,112,2.4609375E-5,50,34,37,957476,183505,21422,16772019,31864,26809,11013,5821,Tag0,unknown
1500042638207,0,51,1.1206054687499999E-5,50,34,37,957476,183505,21422,16772019,31864,26809,11013,5821,Tag0,unknown
1500042638208,0,52,1.142578125E-5,50,34,37,957476,183505,21422,16772019,31864,26809,11013,5821,Tag0,unknown
1500042638209,0,106,2.3291015625000003E-5,50,34,37,957476,183505,21422,16772019,31864,26809,11013,5821,Tag0,unknown
1500042638209,0,-101,-2.2192382812500002E-5,50,34,37,957476,183505,21422,16772019,31864,26809,11013,5821,Tag0,unknown
1500042638210,0,-112,-2.4609375E-5,50,34,37,957476,183505,21422,16772019,31864,26809,11013,5821,Tag0,unknown
1500042638210,0,92,2.021484375E-5,50,34,37,957476,183505,21422,16772019,31864,26809,11013,5821,Tag0,unknown
1500042638210,0,83,1.82373046875E-5,50,34,37,957476,183505,21422,16772019,31864,26809,11013,5821,Tag0,unknown
1500042638211,0,-125,-2.74658203125E-5,50,34,37,957476,183505,21422,16772019,31864,26809,11013,5821,Tag0,unknown
1500042638212,0,-52,-1.142578125E-5,50,34,37,957476,183505,21422,16772019,31864,26809,11013,5821,Tag0,unknown
1500042638212,0,-23,-5.0537109375E-6,50,34,37,957476,183505,21422,16772019,31864,26809,11013,5821,Tag0,unknown
1500042638213,0,-64,-1.40625E-5,50,34,37,957476,183505,21422,16772019,31864,26809,11013,5821,Tag0,unknown
1500042638213,0,-106,-2.3291015625000003E-5,50,34,37,957476,183505,21422,16772019,31864,26809,11013,5821,Tag0,unknown
1500042638224,0,-89,-1.95556640625E-5,50,34,37,957476,183505,21422,16772019,31864,26809,11013,5821,Tag0,unknown
1500042638236,0,-48,-1.0546875E-5,50,34,37,957476,183505,21422,16772019,31864,26809,11013,5821,Tag0,unknown
1500042638237,0,-58,-1.2744140625E-5,50,34,37,957476,183505,21422,16772019,31864,26809,11013,5821,Tag0,unknown
1500042638238,0,-122,-2.6806640625E-5,50,34,37,957476,183505,21422,16772019,31864,26809,11013,5821,Tag0,unknown
1500042638238,0,96,2.109375E-5,50,34,37,957476,183505,21422,16772019,31864,26809,11013,5821,Tag0,unknown
1500042638239,0,114,2.5048828125000003E-5,50,34,37,957476,183505,21422,16772019,31864,26809,11013,5821,Tag0,unknown
1500042638240,0,-104,-2.28515625E-5,50,34,37,957476,183505,21422,16772019,31864,26809,11013,5821,Tag0,unknown
1500042638242,0,-88,-1.93359375E-5,50,34,37,957476,183505,21422,16772019,31864,26809,11013,5821,Tag0,unknown
1500042638243,0,-122,-2.6806640625E-5,50,34,37,957476,183505,21422,16772019,31864,26809,11013,5821,Tag0,unknown
1500042638243,0,92,2.021484375E-5,50,34,37,957476,183505,21422,16772019,31864,26809,11013,5821,Tag0,unknown
1500042638243,0,91,1.99951171875E-5,50,34,37,957476,183505,21422,16772019,31864,26809,11013,5821,Tag0,unknown
1500042638244,0,122,2.6806640625E-5,50,34,37,957476,183505,21422,16772019,31864,26809,11013,5821,Tag0,unknown
1500042638244,0,-122,-2.6806640625E-5,50,34,37,957476,183505,21422,16772019,31864,26809,11013,5821,Tag0,unknown
1500042638245,0,120,2.63671875E-5,50,34,37,957476,183505,21422,16772019,31864,26809,11013,5821,Tag0,unknown
1500042638245,0,-128,-2.8125E-5,50,34,37,957476,183505,21422,16772019,31864,26809,11013,5821,Tag0,unknown
1500042638246,0,-86,-1.8896484375000003E-5,69,27,37,545842,16746290,5212,2472,6185,10292,1859,1732,Tag0,unknown
1500042638263,0,-41,-9.008789062499999E-6,69,27,37,545842,16746290,5212,2472,6185,10292,1859,1732,Tag0,unknown
1500042638269,0,-25,-5.4931640625E-6,69,27,37,545842,16746290,5212,2472,6185,10292,1859,1732,Tag0,unknown
1500042638269,0,-75,-1.64794921875E-5,69,27,37,545842,16746290,5212,2472,6185,10292,1859,1732,Tag0,unknown
1500042638270,0,113,2.48291015625E-5,69,27,37,545842,16746290,5212,2472,6185,10292,1859,1732,Tag0,unknown
1500042638270,0,102,2.2412109374999998E-5,69,27,37,545842,16746290,5212,2472,6185,10292,1859,1732,Tag0,unknown
1500042638271,0,-95,-2.08740234375E-5,69,27,37,545842,16746290,5212,2472,6185,10292,1859,1732,Tag0,unknown
1500042638271,0,-43,-9.448242187500001E-6,69,27,37,545842,16746290,5212,2472,6185,10292,1859,1732,Tag0,unknown
1500042638272,0,-48,-1.0546875E-5,69,27,37,545842,16746290,5212,2472,6185,10292,1859,1732,Tag0,unknown
1500042638273,0,-79,-1.7358398437500003E-5,69,27,37,545842,16746290,5212,2472,6185,10292,1859,1732,Tag0,unknown
1500042638273,0,-83,-1.82373046875E-5,69,27,37,545842,16746290,5212,2472,6185,10292,1859,1732,Tag0,unknown
1500042638274,0,-54,-1.1865234375000001E-5,69,27,37,545842,16746290,5212,2472,6185,10292,1859,1732,Tag0,unknown
1500042638274,0,-14,-3.076171875E-6,69,27,37,545842,16746290,5212,2472,6185,10292,1859,1732,Tag0,unknown
1500042638275,0,-31,-6.8115234375E-6,69,27,37,545842,16746290,5212,2472,6185,10292,1859,1732,Tag0,unknown
1500042638275,0,-103,-2.26318359375E-5,69,27,37,545842,16746290,5212,2472,6185,10292,1859,1732,Tag0,unknown
1500042638275,0,112,2.4609375E-5,69,27,37,545842,16746290,5212,2472,6185,10292,1859,1732,Tag0,unknown
1500042638275,0,-112,-2.4609375E-5,69,27,37,545842,16746290,5212,2472,6185,10292,1859,1732,Tag0,unknown
1500042638275,0,-59,-1.29638671875E-5,69,27,37,545842,16746290,5212,2472,6185,10292,1859,1732,Tag0,unknown
1500042638276,0,-69,-1.51611328125E-5,69,27,37,545842,16746290,5212,2472,6185,10292,1859,1732,Tag0,unknown
1500042638276,0,119,2.6147460937500004E-5,69,27,37,545842,16746290,5212,2472,6185,10292,1859,1732,Tag0,unknown
1500042638277,0,75,1.64794921875E-5,69,27,37,545842,16746290,5212,2472,6185,10292,1859,1732,Tag0,unknown
1500042638299,0,103,2.26318359375E-5,69,27,37,545842,16746290,5212,2472,6185,10292,1859,1732,Tag0,unknown
1500042638299,0,-95,-2.08740234375E-5,69,27,37,545842,16746290,5212,2472,6185,10292,1859,1732,Tag0,unknown
1500042638319,0,-78,-1.7138671875E-5,69,27,37,545842,16746290,5212,2472,6185,10292,1859,1732,Tag0,unknown
1500042638319,0,-128,-2.8125E-5,69,27,37,545842,16746290,5212,2472,6185,10292,1859,1732,Tag0,unknown
1500042638320,0,72,1.58203125E-5,69,27,37,545842,16746290,5212,2472,6185,10292,1859,1732,Tag0,unknown
1500042638320,0,82,1.8017578124999998E-5,69,27,37,545842,16746290,5212,2472,6185,10292,1859,1732,Tag0,unknown
1500042638320,0,-128,-2.8125E-5,69,27,37,545842,16746290,5212,2472,6185,10292,1859,1732,Tag0,unknown
1500042638320,0,-119,-2.6147460937500004E-5,69,27,37,545842,16746290,5212,2472,6185,10292,1859,1732,Tag0,unknown
1500042638321,0,99,2.1752929687500003E-5,69,27,37,545842,16746290,5212,2472,6185,10292,1859,1732,Tag0,unknown
1500042638321,0,74,1.6259765625E-5,69,27,37,545842,16746290,5212,2472,6185,10292,1859,1732,Tag0,unknown
1500042638321,0,107,2.35107421875E-5,69,27,37,545842,16746290,5212,2472,6185,10292,1859,1732,Tag0,unknown
1500042638321,0,-102,-2.2412109374999998E-5,69,27,37,545842,16746290,5212,2472,6185,10292,1859,1732,Tag0,unknown
1500042638322,0,-91,-1.99951171875E-5,69,27,37,545842,16746290,5212,2472,6185,10292,1859,1732,Tag0,unknown
1500042638322,0,113,2.48291015625E-5,69,27,37,545842,16746290,5212,2472,6185,10292,1859,1732,Tag0,unknown
1500042638322,0,58,1.2744140625E-5,69,27,37,545842,16746290,5212,2472,6185,10292,1859,1732,Tag0,unknown
1500042638323,0,69,1.51611328125E-5,69,27,37,545842,16746290,5212,2472,6185,10292,1859,1732,Tag0,unknown
1500042638323,0,-128,-2.8125E-5,69,27,37,545842,16746290,5212,2472,6185,10292,1859,1732,Tag0,unknown
1500042638323,0,-100,-2.197265625E-5,69,27,37,545842,16746290,5212,2472,6185,10292,1859,1732,Tag0,unknown
1500042638323,0,124,2.724609375E-5,69,27,37,545842,16746290,5212,2472,6185,10292,1859,1732,Tag0,unknown
1500042638324,0,86,1.8896484375000003E-5,69,27,37,545842,16746290,5212,2472,6185,10292,1859,1732,Tag0,unknown
1500042638337,0,96,2.109375E-5,69,27,37,545842,16746290,5212,2472,6185,10292,1859,1732,Tag0,unknown
1500042638357,0,-122,-2.6806640625E-5,69,27,37,545842,16746290,5212,2472,6185,10292,1859,1732,Tag0,unknown
1500042638358,0,-92,-2.021484375E-5,69,27,37,545842,16746290,5212,2472,6185,10292,1859,1732,Tag0,unknown
1500042638358,0,-115,-2.52685546875E-5,69,27,37,545842,16746290,5212,2472,6185,10292,1859,1732,Tag0,unknown
1500042638359,0,91,1.99951171875E-5,69,27,37,545842,16746290,5212,2472,6185,10292,1859,1732,Tag0,unknown
1500042638360,0,81,1.77978515625E-5,69,27,37,545842,16746290,5212,2472,6185,10292,1859,1732,Tag0,unknown
1500042638361,0,-124,-2.724609375E-5,69,27,37,545842,16746290,5212,2472,6185,10292,1859,1732,Tag0,unknown
1500042638361,0,-62,-1.3623046875E-5,69,27,37,545842,16746290,5212,2472,6185,10292,1859,1732,Tag0,unknown
1500042638363,0,-55,-1.20849609375E-5,69,27,37,545842,16746290,5212,2472,6185,10292,1859,1732,Tag0,unknown
1500042638364,0,-87,-1.91162109375E-5,69,27,37,545842,16746290,5212,2472,6185,10292,1859,1732,Tag0,unknown
1500042638364,0,-90,-1.9775390625E-5,69,27,37,545842,16746290,5212,2472,6185,10292,1859,1732,Tag0,unknown
1500042638365,0,-56,-1.23046875E-5,69,27,37,545842,16746290,5212,2472,6185,10292,1859,1732,Tag0,unknown
1500042638365,0,-22,-4.833984375E-6,69,27,37,545842,16746290,5212,2472,6185,10292,1859,1732,Tag0,unknown
1500042638370,0,-42,-9.228515625000002E-6,69,27,37,545842,16746290,5212,2472,6185,10292,1859,1732,Tag0,unknown
1500042638371,0,-111,-2.43896484375E-5,69,27,37,545842,16746290,5212,2472,6185,10292,1859,1732,Tag0,unknown
1500042638372,0,118,2.5927734375E-5,69,27,37,545842,16746290,5212,2472,6185,10292,1859,1732,Tag0,unknown
1500042638374,0,-85,-1.86767578125E-5,69,27,37,545842,16746290,5212,2472,6185,10292,1859,1732,Tag0,unknown
1500042638375,0,-36,-7.91015625E-6,69,27,37,545842,16746290,5212,2472,6185,10292,1859,1732,Tag0,unknown
1500042638375,0,-70,-1.5380859375E-5,69,27,37,545842,16746290,5212,2472,6185,10292,1859,1732,Tag0,unknown
1500042638376,0,100,2.197265625E-5,69,27,37,545842,16746290,5212,2472,6185,10292,1859,1732,Tag0,unknown
1500042638380,0,49,1.07666015625E-5,69,27,37,545842,16746290,5212,2472,6185,10292,1859,1732,Tag0,unknown
1500042638380,0,70,1.5380859375E-5,69,27,37,545842,16746290,5212,2472,6185,10292,1859,1732,Tag0,unknown
1500042638381,0,-126,-2.7685546875E-5,69,27,37,545842,16746290,5212,2472,6185,10292,1859,1732,Tag0,unknown
1500042638381,0,-100,-2.197265625E-5,69,27,37,545842,16746290,5212,2472,6185,10292,1859,1732,Tag0,unknown
1500042638382,0,112,2.4609375E-5,69,27,37,545842,16746290,5212,2472,6185,10292,1859,1732,Tag0,unknown
1500042638383,0,60,1.318359375E-5,69,27,37,545842,16746290,5212,2472,6185,10292,1859,1732,Tag0,unknown
1500042638384,0,80,1.7578125E-5,69,27,37,545842,16746290,5212,2472,6185,10292,1859,1732,Tag0,unknown
1500042638385,0,-119,-2.6147460937500004E-5,69,27,37,545842,16746290,5212,2472,6185,10292,1859,1732,Tag0,unknown
1500042638386,0,-93,-2.04345703125E-5,69,27,37,545842,16746290,5212,2472,6185,10292,1859,1732,Tag0,unknown
1500042638386,0,120,2.63671875E-5,69,27,37,545842,16746290,5212,2472,6185,10292,1859,1732,Tag0,unknown
1500042638387,0,81,1.77978515625E-5,69,27,37,545842,16746290,5212,2472,6185,10292,1859,1732,Tag0,unknown
1500042638387,0,101,2.2192382812500002E-5,69,27,37,545842,16746290,5212,2472,6185,10292,1859,1732,Tag0,unknown
1500042638388,0,-104,-2.28515625E-5,69,27,37,545842,16746290,5212,2472,6185,10292,1859,1732,Tag0,unknown
1500042638388,0,-75,-1.64794921875E-5,69,27,37,545842,16746290,5212,2472,6185,10292,1859,1732,Tag0,unknown
1500042638388,0,-111,-2.43896484375E-5,69,27,37,545842,16746290,5212,2472,6185,10292,1859,1732,Tag0,unknown
1500042638389,0,80,1.7578125E-5,69,27,37,545842,16746290,5212,2472,6185,10292,1859,1732,Tag0,unknown
1500042638389,0,65,1.42822265625E-5,69,27,37,545842,16746290,5212,2472,6185,10292,1859,1732,Tag0,unknown
1500042638389,0,117,2.5708007812499998E-5,69,27,37,545842,16746290,5212,2472,6185,10292,1859,1732,Tag0,unknown
1500042638390,0,-96,-2.109375E-5,69,27,37,545842,16746290,5212,2472,6185,10292,1859,1732,Tag0,unknown
1500042638390,0,-128,-2.8125E-5,69,27,37,545842,16746290,5212,2472,6185,10292,1859,1732,Tag0,unknown
1500042638408,0,74,1.6259765625E-5,69,27,37,545842,16746290,5212,2472,6185,10292,1859,1732,Tag0,unknown
1500042638420,0,85,1.86767578125E-5,69,27,37,545842,16746290,5212,2472,6185,10292,1859,1732,Tag0,unknown
1500042638420,0,-125,-2.74658203125E-5,69,27,37,545842,16746290,5212,2472,6185,10292,1859,1732,Tag0,unknown
1500042638421,0,-101,-2.2192382812500002E-5,69,27,37,545842,16746290,5212,2472,6185,10292,1859,1732,Tag0,unknown
1500042638421,0,118,2.5927734375E-5,69,27,37,545842,16746290,5212,2472,6185,10292,1859,1732,Tag0,unknown
1500042638422,0,68,1.4941406250000001E-5,69,27,37,545842,16746290,5212,2472,6185,10292,1859,1732,Tag0,unknown
1500042638423,0,65,1.42822265625E-5,69,27,37,545842,16746290,5212,2472,6185,10292,1859,1732,Tag0,unknown
1500042638423,0,102,2.2412109374999998E-5,69,27,37,545842,16746290,5212,2472,6185,10292,1859,1732,Tag0,unknown
1500042638424,0,-116,-2.548828125E-5,69,27,37,545842,16746290,5212,2472,6185,10292,1859,1732,Tag0,unknown
1500042638424,0,-126,-2.7685546875E-5,69,27,37,545842,16746290,5212,2472,6185,10292,1859,1732,Tag0,unknown
1500042638425,0,75,1.64794921875E-5,69,27,37,545842,16746290,5212,2472,6185,10292,1859,1732,Tag0,unknown
1500042638425,0,53,1.1645507812500002E-5,69,27,37,545842,16746290,5212,2472,6185,10292,1859,1732,Tag0,unknown
1500042638426,0,76,1.669921875E-5,69,27,37,545842,16746290,5212,2472,6185,10292,1859,1732,Tag0,unknown
1500042638426,0,120,2.63671875E-5,69,27,37,545842,16746290,5212,2472,6185,10292,1859,1732,Tag0,unknown
1500042638426,0,-125,-2.74658203125E-5,69,27,37,545842,16746290,5212,2472,6185,10292,1859,1732,Tag0,unknown
1500042638427,0,69,1.51611328125E-5,69,27,37,545842,16746290,5212,2472,6185,10292,1859,1732,Tag0,unknown
1500042638427,0,20,4.39453125E-6,69,27,37,545842,16746290,5212,2472,6185,10292,1859,1732,Tag0,unknown
1500042638427,0,58,1.2744140625E-5,69,27,37,545842,16746290,5212,2472,6185,10292,1859,1732,Tag0,unknown
1500042638427,0,-110,-2.4169921875E-5,69,27,37,545842,16746290,5212,2472,6185,10292,1859,1732,Tag0,unknown
1500042638427,0,-85,-1.86767578125E-5,69,27,37,545842,16746290,5212,2472,6185,10292,1859,1732,Tag0,unknown
1500042638447,0,112,2.4609375E-5,69,27,37,545842,16746290,5212,2472,6185,10292,1859,1732,Tag0,unknown
1500042638456,0,52,1.142578125E-5,69,27,37,545842,16746290,5212,2472,6185,10292,1859,1732,Tag0,unknown
1500042638457,0,60,1.318359375E-5,69,27,37,545842,16746290,5212,2472,6185,10292,1859,1732,Tag0,unknown
1500042638457,0,104,2.28515625E-5,69,27,37,545842,16746290,5212,2472,6185,10292,1859,1732,Tag0,unknown
1500042638458,0,123,2.70263671875E-5,69,27,37,545842,16746290,5212,2472,6185,10292,1859,1732,Tag0,unknown
1500042638459,0,80,1.7578125E-5,69,27,37,545842,16746290,5212,2472,6185,10292,1859,1732,Tag0,unknown
1500042638459,0,28,6.15234375E-6,69,27,37,545842,16746290,5212,2472,6185,10292,1859,1732,Tag0,unknown
1500042638460,0,34,7.4707031250000005E-6,69,27,37,545842,16746290,5212,2472,6185,10292,1859,1732,Tag0,unknown
1500042638460,0,68,1.4941406250000001E-5,69,27,37,545842,16746290,5212,2472,6185,10292,1859,1732,Tag0,unknown
1500042638461,0,74,1.6259765625E-5,69,27,37,545842,16746290,5212,2472,6185,10292,1859,1732,Tag0,unknown
1500042638462,0,35,7.6904296875E-6,69,27,37,545842,16746290,5212,2472,6185,10292,1859,1732,Tag0,unknown
1500042638463,0,-268,-5.8886718750000006E-5,69,27,37,545842,16746290,5212,2472,6185,10292,1859,1732,Tag0,unknown
1500042638463,0,-268,-5.8886718750000006E-5,69,27,37,545842,16746290,5212,2472,6185,10292,1859,1732,Tag0,unknown
1500042638463,0,12,2.63671875E-6,69,27,37,545842,16746290,5212,2472,6185,10292,1859,1732,Tag0,unknown
1500042638464,0,24,5.2734375E-6,69,27,37,545842,16746290,5212,2472,6185,10292,1859,1732,Tag0,unknown
1500042638465,0,-274,-6.0205078124999997E-5,69,27,37,545842,16746290,5212,2472,6185,10292,1859,1732,Tag0,unknown
1500042638465,0,-349,-7.668457031250001E-5,69,27,37,545842,16746290,5212,2472,6185,10292,1859,1732,Tag0,unknown
1500042638465,0,-138,-3.0322265625E-5,69,27,37,545842,16746290,5212,2472,6185,10292,1859,1732,Tag0,unknown
1500042638466,0,-366,-8.0419921875E-5,69,27,37,545842,16746290,5212,2472,6185,10292,1859,1732,Tag0,unknown
1500042638466,0,-325,-7.14111328125E-5,69,27,37,545842,16746290,5212,2472,6185,10292,1859,1732,Tag0,unknown
1500042638489,0,-341,-7.492675781250002E-5,69,27,37,545842,16746290,5212,2472,6185,10292,1859,1732,Tag0,unknown
1500042638489,0,-150,-3.2958984375E-5,69,27,37,545842,16746290,5212,2472,6185,10292,1859,1732,Tag0,unknown
1500042638490,0,-181,-3.9770507812500004E-5,69,27,37,545842,16746290,5212,2472,6185,10292,1859,1732,Tag0,unknown
1500042638490,0,-145,-3.18603515625E-5,69,27,37,545842,16746290,5212,2472,6185,10292,1859,1732,Tag0,unknown
1500042638490,0,-334,-7.338867187500001E-5,69,27,37,545842,16746290,5212,2472,6185,10292,1859,1732,Tag0,unknown
1500042638490,0,-315,-6.92138671875E-5,69,27,37,545842,16746290,5212,2472,6185,10292,1859,1732,Tag0,unknown
1500042638491,0,-359,-7.88818359375E-5,69,27,37,545842,16746290,5212,2472,6185,10292,1859,1732,Tag0,unknown
1500042638491,0,-378,-8.3056640625E-5,69,27,37,545842,16746290,5212,2472,6185,10292,1859,1732,Tag0,unknown
1500042638491,0,-333,-7.316894531249999E-5,69,27,37,545842,16746290,5212,2472,6185,10292,1859,1732,Tag0,unknown
1500042638492,0,-274,-6.0205078124999997E-5,69,27,37,545842,16746290,5212,2472,6185,10292,1859,1732,Tag0,unknown
1500042638492,0,-275,-6.04248046875E-5,69,27,37,545842,16746290,5212,2472,6185,10292,1859,1732,Tag0,unknown
1500042638492,0,-329,-7.229003906250001E-5,69,27,37,545842,16746290,5212,2472,6185,10292,1859,1732,Tag0,unknown
1500042638493,0,-359,-7.88818359375E-5,69,27,37,545842,16746290,5212,2472,6185,10292,1859,1732,Tag0,unknown
1500042638493,0,-331,-7.272949218750001E-5,69,27,37,545842,16746290,5212,2472,6185,10292,1859,1732,Tag0,unknown
1500042638493,0,-281,-6.17431640625E-5,69,27,37,545842,16746290,5212,2472,6185,10292,1859,1732,Tag0,unknown
1500042638494,0,-263,-5.7788085937500005E-5,69,27,37,545842,16746290,5212,2472,6185,10292,1859,1732,Tag0,unknown
1500042638494,0,-314,-6.8994140625E-5,69,27,37,545842,16746290,5212,2472,6185,10292,1859,1732,Tag0,unknown
1500042638494,0,-355,-7.80029296875E-5,69,27,37,545842,16746290,5212,2472,6185,10292,1859,1732,Tag0,unknown
1500042638495,0,-338,-7.426757812499999E-5,69,27,37,545842,16746290,5212,2472,6185,10292,1859,1732,Tag0,unknown
1500042638495,0,-286,-6.2841796875E-5,69,27,37,545842,16746290,5212,2472,6185,10292,1859,1732,Tag0,unknown
1500042638520,0,-269,-5.9106445312499996E-5,69,27,37,545842,16746290,5212,2472,6185,10292,1859,1732,Tag0,unknown
1500042638539,0,-309,-6.78955078125E-5,69,27,37,545842,16746290,5212,2472,6185,10292,1859,1732,Tag0,unknown
1500042638540,0,-342,-7.5146484375E-5,69,27,37,545842,16746290,5212,2472,6185,10292,1859,1732,Tag0,unknown
1500042638541,0,-309,-6.78955078125E-5,69,27,37,545842,16746290,5212,2472,6185,10292,1859,1732,Tag0,unknown
1500042638543,0,-261,-5.73486328125E-5,69,27,37,545842,16746290,5212,2472,6185,10292,1859,1732,Tag0,unknown
1500042638547,0,-258,-5.6689453125000004E-5,69,27,37,545842,16746290,5212,2472,6185,10292,1859,1732,Tag0,unknown
1500042638548,0,-322,-7.0751953125E-5,69,27,37,545842,16746290,5212,2472,6185,10292,1859,1732,Tag0,unknown
1500042638549,0,-141,-3.09814453125E-5,69,27,37,545842,16746290,5212,2472,6185,10292,1859,1732,Tag0,unknown
1500042638550,0,-155,-3.40576171875E-5,69,27,37,545842,16746290,5212,2472,6185,10292,1859,1732,Tag0,unknown
1500042638550,0,-346,-7.6025390625E-5,69,27,37,545842,16746290,5212,2472,6185,10292,1859,1732,Tag0,unknown
1500042638551,0,-291,-6.39404296875E-5,69,27,37,545842,16746290,5212,2472,6185,10292,1859,1732,Tag0,unknown
1500042638556,0,-310,-6.8115234375E-5,69,27,37,545842,16746290,5212,2472,6185,10292,1859,1732,Tag0,unknown
1500042638556,0,-353,-7.75634765625E-5,69,27,37,545842,16746290,5212,2472,6185,10292,1859,1732,Tag0,unknown
1500042638557,0,-348,-7.646484375E-5,69,27,37,545842,16746290,5212,2472,6185,10292,1859,1732,Tag0,unknown
1500042638557,0,-313,-6.87744140625E-5,69,27,37,545842,16746290,5212,2472,6185,10292,1859,1732,Tag0,unknown
1500042638558,0,-276,-6.064453125E-5,69,27,37,545842,16746290,5212,2472,6185,10292,1859,1732,Tag0,unknown
1500042638558,0,-283,-6.218261718750001E-5,69,27,37,545842,16746290,5212,2472,6185,10292,1859,1732,Tag0,unknown
1500042638558,0,-334,-7.338867187500001E-5,69,27,37,545842,16746290,5212,2472,6185,10292,1859,1732,Tag0,unknown
1500042638559,0,-345,-7.58056640625E-5,69,27,37,545842,16746290,5212,2472,6185,10292,1859,1732,Tag0,unknown
1500042638560,0,-280,-6.15234375E-5,69,27,37,545842,16746290,5212,2472,6185,10292,1859,1732,Tag0,unknown
1500042638565,0,38,8.349609375E-6,69,27,37,545842,16746290,5212,2472,6185,10292,1859,1732,Tag0,unknown
1500042638566,0,35,7.6904296875E-6,69,27,37,545842,16746290,5212,2472,6185,10292,1859,1732,Tag0,unknown
1500042638566,0,-267,-5.86669921875E-5,69,27,37,545842,16746290,5212,2472,6185,10292,1859,1732,Tag0,unknown
1500042638567,0,-275,-6.04248046875E-5,69,27,37,545842,16746290,5212,2472,6185,10292,1859,1732,Tag0,unknown
1500042638568,0,40,8.7890625E-6,69,27,37,545842,16746290,5212,2472,6185,10292,1859,1732,Tag0,unknown
1500042638569,0,96,2.109375E-5,69,27,37,545842,16746290,5212,2472,6185,10292,1859,1732,Tag0,unknown
1500042638569,0,97,2.13134765625E-5,69,27,37,545842,16746290,5212,2472,6185,10292,1859,1732,Tag0,unknown
1500042638570,0,67,1.4721679687500002E-5,69,27,37,545842,16746290,5212,2472,6185,10292,1859,1732,Tag0,unknown
1500042638571,0,36,7.91015625E-6,69,27,37,545842,16746290,5212,2472,6185,10292,1859,1732,Tag0,unknown
1500042638573,0,40,8.7890625E-6,69,27,37,545842,16746290,5212,2472,6185,10292,1859,1732,Tag0,unknown
1500042638575,0,98,2.1533203125E-5,69,27,37,545842,16746290,5212,2472,6185,10292,1859,1732,Tag0,unknown
1500042638576,0,-120,-2.63671875E-5,69,27,37,545842,16746290,5212,2472,6185,10292,1859,1732,Tag0,unknown
1500042638579,0,120,2.63671875E-5,69,27,37,545842,16746290,5212,2472,6185,10292,1859,1732,Tag0,unknown
1500042638580,0,96,2.109375E-5,69,27,37,545842,16746290,5212,2472,6185,10292,1859,1732,Tag0,unknown
1500042638580,0,105,2.30712890625E-5,69,27,37,545842,16746290,5212,2472,6185,10292,1859,1732,Tag0,unknown
1500042638581,0,-105,-2.30712890625E-5,69,27,37,545842,16746290,5212,2472,6185,10292,1859,1732,Tag0,unknown
1500042638582,0,-78,-1.7138671875E-5,69,27,37,545842,16746290,5212,2472,6185,10292,1859,1732,Tag0,unknown
1500042638582,0,-118,-2.5927734375E-5,69,27,37,545842,16746290,5212,2472,6185,10292,1859,1732,Tag0,unknown
1500042638583,0,93,2.04345703125E-5,69,27,37,545842,16746290,5212,2472,6185,10292,1859,1732,Tag0,unknown
1500042638584,0,109,2.39501953125E-5,69,27,37,545842,16746290,5212,2472,6185,10292,1859,1732,Tag0,unknown
1500042638598,0,-89,-1.95556640625E-5,69,27,37,545842,16746290,5212,2472,6185,10292,1859,1732,Tag0,unknown
1500042638610,0,-59,-1.29638671875E-5,69,27,37,545842,16746290,5212,2472,6185,10292,1859,1732,Tag0,unknown
1500042638610,0,-88,-1.93359375E-5,69,27,37,545842,16746290,5212,2472,6185,10292,1859,1732,Tag0,unknown
1500042638611,0,-126,-2.7685546875E-5,69,27,37,545842,16746290,5212,2472,6185,10292,1859,1732,Tag0,unknown
1500042638611,0,-101,-2.2192382812500002E-5,69,27,37,545842,16746290,5212,2472,6185,10292,1859,1732,Tag0,unknown
1500042638612,0,-32,-7.03125E-6,69,27,37,545842,16746290,5212,2472,6185,10292,1859,1732,Tag0,unknown
1500042638613,0,266,5.8447265625E-5,69,27,37,545842,16746290,5212,2472,6185,10292,1859,1732,Tag0,unknown
1500042638614,0,256,5.625E-5,69,27,37,545842,16746290,5212,2472,6185,10292,1859,1732,Tag0,unknown
1500042638615,0,-53,-1.1645507812500002E-5,69,27,37,545842,16746290,5212,2472,6185,10292,1859,1732,Tag0,unknown
1500042638615,0,-77,-1.69189453125E-5,69,27,40,545842,16746290,5212,2472,6185,10292,1859,1732,Tag0,unknown
1500042638616,0,-59,-1.29638671875E-5,69,27,40,545842,16746290,5212,2472,6185,10292,1859,1732,Tag0,unknown
1500042638617,0,-39,-8.5693359375E-6,69,27,40,545842,16746290,5212,2472,6185,10292,1859,1732,Tag0,unknown
1500042638617,0,-46,-1.0107421875E-5,69,27,40,545842,16746290,5212,2472,6185,10292,1859,1732,Tag0,unknown
1500042638617,0,-87,-1.91162109375E-5,69,27,40,545842,16746290,5212,2472,6185,10292,1859,1732,Tag0,unknown
1500042638618,0,-100,-2.197265625E-5,69,27,40,545842,16746290,5212,2472,6185,10292,1859,1732,Tag0,unknown
1500042638618,0,-72,-1.58203125E-5,69,27,40,545842,16746290,5212,2472,6185,10292,1859,1732,Tag0,unknown
1500042638618,0,-23,-5.0537109375E-6,69,27,40,545842,16746290,5212,2472,6185,10292,1859,1732,Tag0,unknown
1500042638619,0,-20,-4.39453125E-6,69,27,40,545842,16746290,5212,2472,6185,10292,1859,1732,Tag0,unknown
1500042638620,0,-74,-1.6259765625E-5,69,27,40,545842,16746290,5212,2472,6185,10292,1859,1732,Tag0,unknown
1500042638621,0,-101,-2.2192382812500002E-5,69,27,40,545842,16746290,5212,2472,6185,10292,1859,1732,Tag0,unknown
1500042638635,0,-61,-1.34033203125E-5,69,27,40,545842,16746290,5212,2472,6185,10292,1859,1732,Tag0,unknown
1500042638636,0,-6,-1.318359375E-6,69,27,40,545842,16746290,5212,2472,6185,10292,1859,1732,Tag0,unknown
1500042638655,0,262,5.7568359375E-5,69,27,40,545842,16746290,5212,2472,6185,10292,1859,1732,Tag0,unknown
1500042638656,0,-36,-7.91015625E-6,69,27,40,545842,16746290,5212,2472,6185,10292,1859,1732,Tag0,unknown
1500042638656,0,-53,-1.1645507812500002E-5,69,27,40,545842,16746290,5212,2472,6185,10292,1859,1732,Tag0,unknown
1500042638656,0,-31,-6.8115234375E-6,69,27,40,545842,16746290,5212,2472,6185,10292,1859,1732,Tag0,unknown
1500042638656,0,265,5.82275390625E-5,69,27,40,545842,16746290,5212,2472,6185,10292,1859,1732,Tag0,unknown
1500042638657,0,281,6.17431640625E-5,69,27,40,545842,16746290,5212,2472,6185,10292,1859,1732,Tag0,unknown
1500042638657,0,-21,-4.614257812500001E-6,69,27,40,545842,16746290,5212,2472,6185,10292,1859,1732,Tag0,unknown
1500042638657,0,-84,-1.8457031250000004E-5,69,27,40,545842,16746290,5212,2472,6185,10292,1859,1732,Tag0,unknown
1500042638657,0,-90,-1.9775390625E-5,69,27,40,545842,16746290,5212,2472,6185,10292,1859,1732,Tag0,unknown
1500042638658,0,-45,-9.8876953125E-6,69,27,40,545842,16746290,5212,2472,6185,10292,1859,1732,Tag0,unknown
1500042638658,0,-12,-2.63671875E-6,69,27,40,545842,16746290,5212,2472,6185,10292,1859,1732,Tag0,unknown
1500042638658,0,-36,-7.91015625E-6,69,27,40,545842,16746290,5212,2472,6185,10292,1859,1732,Tag0,unknown
1500042638658,0,-67,-1.4721679687500002E-5,69,27,40,545842,16746290,5212,2472,6185,10292,1859,1732,Tag0,unknown
1500042638659,0,-47,-1.0327148437500001E-5,69,27,40,545842,16746290,5212,2472,6185,10292,1859,1732,Tag0,unknown
1500042638659,0,-19,-4.1748046875E-6,69,27,40,545842,16746290,5212,2472,6185,10292,1859,1732,Tag0,unknown
1500042638659,0,-6,-1.318359375E-6,69,27,40,545842,16746290,5212,2472,6185,10292,1859,1732,Tag0,unknown
1500042638659,0,-42,-9.228515625000002E-6,69,27,40,545842,16746290,5212,2472,6185,10292,1859,1732,Tag0,unknown
1500042638660,0,-93,-2.04345703125E-5,69,27,40,545842,16746290,5212,2472,6185,10292,1859,1732,Tag0,unknown
1500042638678,0,-105,-2.30712890625E-5,69,27,40,545842,16746290,5212,2472,6185,10292,1859,1732,Tag0,unknown
1500042638679,0,-61,-1.34033203125E-5,69,27,40,545842,16746290,5212,2472,6185,10292,1859,1732,Tag0,unknown
1500042638693,0,-28,-6.15234375E-6,69,27,40,545842,16746290,5212,2472,6185,10292,1859,1732,Tag0,unknown
1500042638694,0,-58,-1.2744140625E-5,69,27,40,545842,16746290,5212,2472,6185,10292,1859,1732,Tag0,unknown
1500042638695,0,-118,-2.5927734375E-5,69,27,40,545842,16746290,5212,2472,6185,10292,1859,1732,Tag0,unknown
1500042638696,0,-121,-2.6586914062500003E-5,69,27,40,545842,16746290,5212,2472,6185,10292,1859,1732,Tag0,unknown
1500042638696,0,-69,-1.51611328125E-5,69,27,40,545842,16746290,5212,2472,6185,10292,1859,1732,Tag0,unknown
1500042638697,0,-13,-2.8564453125E-6,69,27,40,545842,16746290,5212,2472,6185,10292,1859,1732,Tag0,unknown
1500042638698,0,-12,-2.63671875E-6,69,27,40,545842,16746290,5212,2472,6185,10292,1859,1732,Tag0,unknown
1500042638699,0,-56,-1.23046875E-5,69,27,40,545842,16746290,5212,2472,6185,10292,1859,1732,Tag0,unknown
1500042638699,0,-85,-1.86767578125E-5,69,27,40,545842,16746290,5212,2472,6185,10292,1859,1732,Tag0,unknown
1500042638700,0,-74,-1.6259765625E-5,69,27,40,545842,16746290,5212,2472,6185,10292,1859,1732,Tag0,unknown
1500042638700,0,-53,-1.1645507812500002E-5,69,27,40,545842,16746290,5212,2472,6185,10292,1859,1732,Tag0,unknown
1500042638701,0,-57,-1.2524414062500001E-5,69,27,40,545842,16746290,5212,2472,6185,10292,1859,1732,Tag0,unknown
1500042638702,0,-95,-2.08740234375E-5,69,27,40,545842,16746290,5212,2472,6185,10292,1859,1732,Tag0,unknown
1500042638703,0,-112,-2.4609375E-5,69,27,40,545842,16746290,5212,2472,6185,10292,1859,1732,Tag0,unknown
1500042638704,0,-95,-2.08740234375E-5,69,27,40,545842,16746290,5212,2472,6185,10292,1859,1732,Tag0,unknown
1500042638705,0,-71,-1.56005859375E-5,69,27,40,545842,16746290,5212,2472,6185,10292,1859,1732,Tag0,unknown
1500042638705,0,-80,-1.7578125E-5,69,27,40,545842,16746290,5212,2472,6185,10292,1859,1732,Tag0,unknown
1500042638706,0,109,2.39501953125E-5,69,27,40,545842,16746290,5212,2472,6185,10292,1859,1732,Tag0,unknown
1500042638716,0,53,1.1645507812500002E-5,69,27,40,545842,16746290,5212,2472,6185,10292,1859,1732,Tag0,unknown
1500042638717,0,71,1.56005859375E-5,69,27,40,545842,16746290,5212,2472,6185,10292,1859,1732,Tag0,unknown
1500042638717,0,122,2.6806640625E-5,69,27,40,545842,16746290,5212,2472,6185,10292,1859,1732,Tag0,unknown
1500042638718,0,-121,-2.6586914062500003E-5,69,27,40,545842,16746290,5212,2472,6185,10292,1859,1732,Tag0,unknown
1500042638719,0,93,2.04345703125E-5,69,27,40,545842,16746290,5212,2472,6185,10292,1859,1732,Tag0,unknown
1500042638725,0,67,1.4721679687500002E-5,69,27,40,545842,16746290,5212,2472,6185,10292,1859,1732,Tag0,unknown
1500042638725,0,90,1.9775390625E-5,69,27,40,545842,16746290,5212,2472,6185,10292,1859,1732,Tag0,unknown
1500042638726,0,-116,-2.548828125E-5,69,27,40,545842,16746290,5212,2472,6185,10292,1859,1732,Tag0,unknown
1500042638726,0,-85,-1.86767578125E-5,69,27,40,545842,16746290,5212,2472,6185,10292,1859,1732,Tag0,unknown
1500042638727,0,-123,-2.70263671875E-5,69,27,40,545842,16746290,5212,2472,6185,10292,1859,1732,Tag0,unknown
1500042638727,0,90,1.9775390625E-5,69,27,40,545842,16746290,5212,2472,6185,10292,1859,1732,Tag0,unknown
1500042638728,0,101,2.2192382812500002E-5,69,27,40,545842,16746290,5212,2472,6185,10292,1859,1732,Tag0,unknown
1500042638728,0,-111,-2.43896484375E-5,69,27,40,545842,16746290,5212,2472,6185,10292,1859,1732,Tag0,unknown
1500042638729,0,-95,-2.08740234375E-5,69,27,40,545842,16746290,5212,2472,6185,10292,1859,1732,Tag0,unknown
1500042638729,0,107,2.35107421875E-5,69,27,40,545842,16746290,5212,2472,6185,10292,1859,1732,Tag0,unknown
1500042638730,0,60,1.318359375E-5,69,27,40,545842,16746290,5212,2472,6185,10292,1859,1732,Tag0,unknown
1500042638740,0,74,1.6259765625E-5,69,27,40,545842,16746290,5212,2472,6185,10292,1859,1732,Tag0,unknown
1500042638741,0,106,2.3291015625000003E-5,69,27,40,545842,16746290,5212,2472,6185,10292,1859,1732,Tag0,unknown
1500042638741,0,114,2.5048828125000003E-5,69,27,40,545842,16746290,5212,2472,6185,10292,1859,1732,Tag0,unknown
1500042638742,0,71,1.56005859375E-5,69,27,40,545842,16746290,5212,2472,6185,10292,1859,1732,Tag0,unknown
1500042638768,0,29,6.3720703125E-6,69,27,40,545842,16746290,5212,2472,6185,10292,1859,1732,Tag0,unknown
1500042638770,0,41,9.008789062499999E-6,69,27,40,545842,16746290,5212,2472,6185,10292,1859,1732,Tag0,unknown
1500042638771,0,102,2.2412109374999998E-5,69,27,40,545842,16746290,5212,2472,6185,10292,1859,1732,Tag0,unknown
1500042638772,0,-110,-2.4169921875E-5,69,27,40,545842,16746290,5212,2472,6185,10292,1859,1732,Tag0,unknown
1500042638773,0,106,2.3291015625000003E-5,69,27,40,545842,16746290,5212,2472,6185,10292,1859,1732,Tag0,unknown
1500042638773,0,35,7.6904296875E-6,69,27,40,545842,16746290,5212,2472,6185,10292,1859,1732,Tag0,unknown
1500042638773,0,16,3.515625E-6,69,27,40,545842,16746290,5212,2472,6185,10292,1859,1732,Tag0,unknown
1500042638773,0,42,9.228515625000002E-6,69,27,40,545842,16746290,5212,2472,6185,10292,1859,1732,Tag0,unknown
1500042638774,0,73,1.6040039062500002E-5,69,27,40,545842,16746290,5212,2472,6185,10292,1859,1732,Tag0,unknown
1500042638774,0,68,1.4941406250000001E-5,69,27,40,545842,16746290,5212,2472,6185,10292,1859,1732,Tag0,unknown
1500042638774,0,20,4.39453125E-6,69,27,40,545842,16746290,5212,2472,6185,10292,1859,1732,Tag0,unknown
1500042638774,0,-284,-6.240234375E-5,69,27,40,545842,16746290,5212,2472,6185,10292,1859,1732,Tag0,unknown
1500042638775,0,-267,-5.86669921875E-5,69,27,40,545842,16746290,5212,2472,6185,10292,1859,1732,Tag0,unknown
1500042638775,0,41,9.008789062499999E-6,69,27,40,545842,16746290,5212,2472,6185,10292,1859,1732,Tag0,unknown
1500042638775,0,51,1.1206054687499999E-5,69,27,40,545842,16746290,5212,2472,6185,10292,1859,1732,Tag0,unknown
1500042638775,0,-263,-5.7788085937500005E-5,69,27,40,545842,16746290,5212,2472,6185,10292,1859,1732,Tag0,unknown
1500042638776,0,-306,-6.723632812500001E-5,69,27,40,545842,16746290,5212,2472,6185,10292,1859,1732,Tag0,unknown
1500042638776,0,-295,-6.48193359375E-5,69,27,40,545842,16746290,5212,2472,6185,10292,1859,1732,Tag0,unknown
1500042638776,0,-267,-5.86669921875E-5,69,27,40,545842,16746290,5212,2472,6185,10292,1859,1732,Tag0,unknown
1500042638776,0,-270,-5.9326171875E-5,69,27,40,545842,16746290,5212,2472,6185,10292,1859,1732,Tag0,unknown
1500042638791,0,-356,-7.822265625E-5,69,27,40,545842,16746290,5212,2472,6185,10292,1859,1732,Tag0,unknown
1500042638806,0,-196,-4.306640625E-5,69,27,40,545842,16746290,5212,2472,6185,10292,1859,1732,Tag0,unknown
1500042638807,0,-229,-5.03173828125E-5,69,27,40,545842,16746290,5212,2472,6185,10292,1859,1732,Tag0,unknown
1500042638807,0,-212,-4.6582031250000006E-5,69,27,40,545842,16746290,5212,2472,6185,10292,1859,1732,Tag0,unknown
1500042638807,0,-213,-4.68017578125E-5,69,27,40,545842,16746290,5212,2472,6185,10292,1859,1732,Tag0,unknown
1500042638807,0,-519,-1.140380859375E-4,69,27,40,545842,16746290,5212,2472,6185,10292,1859,1732,Tag0,unknown
1500042638808,0,-550,-1.20849609375E-4,69,27,40,545842,16746290,5212,2472,6185,10292,1859,1732,Tag0,unknown
1500042638808,0,-242,-5.3173828125000005E-5,69,27,40,545842,16746290,5212,2472,6185,10292,1859,1732,Tag0,unknown
1500042638808,0,-141,-3.09814453125E-5,69,27,40,545842,16746290,5212,2472,6185,10292,1859,1732,Tag0,unknown
1500042638808,0,-329,-7.229003906250001E-5,69,27,40,545842,16746290,5212,2472,6185,10292,1859,1732,Tag0,unknown
1500042638809,0,-369,-8.10791015625E-5,69,27,40,545842,16746290,5212,2472,6185,10292,1859,1732,Tag0,unknown
1500042638809,0,-181,-3.9770507812500004E-5,69,27,40,545842,16746290,5212,2472,6185,10292,1859,1732,Tag0,unknown
1500042638809,0,-184,-4.04296875E-5,69,27,40,545842,16746290,5212,2472,6185,10292,1859,1732,Tag0,unknown
1500042638809,0,-381,-8.371582031250001E-5,69,27,40,545842,16746290,5212,2472,6185,10292,1859,1732,Tag0,unknown
1500042638810,0,-341,-7.492675781250002E-5,69,27,40,545842,16746290,5212,2472,6185,10292,1859,1732,Tag0,unknown
1500042638810,0,-349,-7.668457031250001E-5,69,27,40,545842,16746290,5212,2472,6185,10292,1859,1732,Tag0,unknown
1500042638810,0,-364,-7.998046875E-5,69,27,40,545842,16746290,5212,2472,6185,10292,1859,1732,Tag0,unknown
1500042638811,0,-343,-7.53662109375E-5,69,27,40,545842,16746290,5212,2472,6185,10292,1859,1732,Tag0,unknown
1500042638811,0,-285,-6.26220703125E-5,69,27,40,545842,16746290,5212,2472,6185,10292,1859,1732,Tag0,unknown
1500042638811,0,27,5.9326171875000005E-6,69,27,40,545842,16746290,5212,2472,6185,10292,1859,1732,Tag0,unknown
1500042638831,0,35,7.6904296875E-6,69,27,40,545842,16746290,5212,2472,6185,10292,1859,1732,Tag0,unknown
1500042638840,0,-264,-5.80078125E-5,69,27,40,545842,16746290,5212,2472,6185,10292,1859,1732,Tag0,unknown
1500042638840,0,-275,-6.04248046875E-5,69,27,40,545842,16746290,5212,2472,6185,10292,1859,1732,Tag0,unknown
1500042638840,0,36,7.91015625E-6,69,27,40,545842,16746290,5212,2472,6185,10292,1859,1732,Tag0,unknown
1500042638841,0,81,1.77978515625E-5,69,27,40,545842,16746290,5212,2472,6185,10292,1859,1732,Tag0,unknown
1500042638841,0,61,1.34033203125E-5,69,27,40,545842,16746290,5212,2472,6185,10292,1859,1732,Tag0,unknown
1500042638841,0,3,6.591796875E-7,69,27,40,545842,16746290,5212,2472,6185,10292,1859,1732,Tag0,unknown
1500042638842,0,-262,-5.7568359375E-5,69,27,40,545842,16746290,5212,2472,6185,10292,1859,1732,Tag0,unknown
1500042638843,0,45,9.8876953125E-6,69,27,40,545842,16746290,5212,2472,6185,10292,1859,1732,Tag0,unknown
1500042638843,0,119,2.6147460937500004E-5,69,27,40,545842,16746290,5212,2472,6185,10292,1859,1732,Tag0,unknown
1500042638844,0,-95,-2.08740234375E-5,69,27,40,545842,16746290,5212,2472,6185,10292,1859,1732,Tag0,unknown
1500042638844,0,121,2.6586914062500003E-5,69,27,40,545842,16746290,5212,2472,6185,10292,1859,1732,Tag0,unknown
1500042638845,0,66,1.4501953125E-5,69,27,40,545842,16746290,5212,2472,6185,10292,1859,1732,Tag0,unknown
1500042638845,0,66,1.4501953125E-5,69,27,40,545842,16746290,5212,2472,6185,10292,1859,1732,Tag0,unknown
1500042638846,0,123,2.70263671875E-5,69,27,40,545842,16746290,5212,2472,6185,10292,1859,1732,Tag0,unknown
1500042638846,0,-91,-1.99951171875E-5,69,27,40,545842,16746290,5212,2472,6185,10292,1859,1732,Tag0,unknown
1500042638847,0,-125,-2.74658203125E-5,69,27,40,545842,16746290,5212,2472,6185,10292,1859,1732,Tag0,unknown
1500042638847,0,80,1.7578125E-5,69,27,40,545842,16746290,5212,2472,6185,10292,1859,1732,Tag0,unknown
1500042638848,0,75,1.64794921875E-5,69,27,40,545842,16746290,5212,2472,6185,10292,1859,1732,Tag0,unknown
1500042638848,0,122,2.6806640625E-5,69,27,40,545842,16746290,5212,2472,6185,10292,1859,1732,Tag0,unknown
1500042638869,0,-100,-2.197265625E-5,69,27,40,545842,16746290,5212,2472,6185,10292,1859,1732,Tag0,unknown
1500042638875,0,117,2.5708007812499998E-5,69,27,40,545842,16746290,5212,2472,6185,10292,1859,1732,Tag0,unknown
1500042638875,0,65,1.42822265625E-5,69,27,40,545842,16746290,5212,2472,6185,10292,1859,1732,Tag0,unknown
1500042638876,0,65,1.42822265625E-5,69,27,40,545842,16746290,5212,2472,6185,10292,1859,1732,Tag0,unknown
1500042638876,0,116,2.548828125E-5,69,27,40,545842,16746290,5212,2472,6185,10292,1859,1732,Tag0,unknown
1500042638877,0,-107,-2.35107421875E-5,69,27,40,545842,16746290,5212,2472,6185,10292,1859,1732,Tag0,unknown
1500042638877,0,121,2.6586914062500003E-5,69,27,40,545842,16746290,5212,2472,6185,10292,1859,1732,Tag0,unknown
1500042638878,0,85,1.86767578125E-5,69,27,40,545842,16746290,5212,2472,6185,10292,1859,1732,Tag0,unknown
1500042638878,0,72,1.58203125E-5,69,27,40,545842,16746290,5212,2472,6185,10292,1859,1732,Tag0,unknown
1500042638879,0,86,1.8896484375000003E-5,69,27,40,545842,16746290,5212,2472,6185,10292,1859,1732,Tag0,unknown
1500042638891,0,107,2.35107421875E-5,69,27,40,545842,16746290,5212,2472,6185,10292,1859,1732,Tag0,unknown
1500042638892,0,92,2.021484375E-5,69,27,40,545842,16746290,5212,2472,6185,10292,1859,1732,Tag0,unknown
1500042638893,0,51,1.1206054687499999E-5,69,27,40,545842,16746290,5212,2472,6185,10292,1859,1732,Tag0,unknown
1500042638893,0,38,8.349609375E-6,69,27,40,545842,16746290,5212,2472,6185,10292,1859,1732,Tag0,unknown
1500042638894,0,64,1.40625E-5,69,27,40,545842,16746290,5212,2472,6185,10292,1859,1732,Tag0,unknown
1500042638894,0,73,1.6040039062500002E-5,69,27,40,545842,16746290,5212,2472,6185,10292,1859,1732,Tag0,unknown
1500042638895,0,50,1.0986328125E-5,69,27,40,545842,16746290,5212,2472,6185,10292,1859,1732,Tag0,unknown
1500042638895,0,23,5.0537109375E-6,69,27,40,545842,16746290,5212,2472,6185,10292,1859,1732,Tag0,unknown
1500042638895,0,52,1.142578125E-5,69,27,40,545842,16746290,5212,2472,6185,10292,1859,1732,Tag0,unknown
1500042638896,0,108,2.3730468750000002E-5,69,27,40,545842,16746290,5212,2472,6185,10292,1859,1732,Tag0,unknown
1500042638909,0,-110,-2.4169921875E-5,69,27,40,545842,16746290,5212,2472,6185,10292,1859,1732,Tag0,unknown
1500042638926,0,-118,-2.5927734375E-5,69,27,40,545842,16746290,5212,2472,6185,10292,1859,1732,Tag0,unknown
1500042638927,0,83,1.82373046875E-5,69,27,40,545842,16746290,5212,2472,6185,10292,1859,1732,Tag0,unknown
1500042638927,0,40,8.7890625E-6,69,27,40,545842,16746290,5212,2472,6185,10292,1859,1732,Tag0,unknown
1500042638928,0,69,1.51611328125E-5,69,27,40,545842,16746290,5212,2472,6185,10292,1859,1732,Tag0,unknown
