timestampMs,poorSignal,eegRawValue,eegRawValueVolts,attention,meditation,blinkStrength,delta,theta,alphaLow,alphaHigh,betaLow,betaHigh,gammaLow,gammaMid,tagEvent,location
1500042129202,0,-300,-6.591796875E-5,40,44,56,563535,85640,16834,2988,19583,6223,2204,2355,Tag0,unknown
1500042129203,0,-364,-7.998046875E-5,40,44,56,563535,85640,16834,2988,19583,6223,2204,2355,Tag0,unknown
1500042129203,0,-326,-7.163085937500001E-5,40,44,56,563535,85640,16834,2988,19583,6223,2204,2355,Tag0,unknown
1500042129204,0,-260,-5.712890625E-5,40,44,56,563535,85640,16834,2988,19583,6223,2204,2355,Tag0,unknown
1500042129221,0,6,1.318359375E-6,40,44,56,563535,85640,16834,2988,19583,6223,2204,2355,Tag0,unknown
1500042129223,0,-298,-6.5478515625E-5,40,44,56,563535,85640,16834,2988,19583,6223,2204,2355,Tag0,unknown
1500042129224,0,-338,-7.426757812499999E-5,40,44,56,563535,85640,16834,2988,19583,6223,2204,2355,Tag0,unknown
1500042129225,0,-325,-7.14111328125E-5,40,44,56,563535,85640,16834,2988,19583,6223,2204,2355,Tag0,unknown
1500042129226,0,-266,-5.8447265625E-5,40,44,56,563535,85640,16834,2988,19583,6223,2204,2355,Tag0,unknown
1500042129227,0,27,5.9326171875000005E-6,40,44,56,563535,85640,16834,2988,19583,6223,2204,2355,Tag0,unknown
1500042129227,0,-267,-5.86669921875E-5,40,44,56,563535,85640,16834,2988,19583,6223,2204,2355,Tag0,unknown
1500042129227,0,-311,-6.833496093750001E-5,40,44,56,563535,85640,16834,2988,19583,6223,2204,2355,Tag0,unknown
1500042129228,0,-273,-5.998535156250001E-5,40,44,56,563535,85640,16834,2988,19583,6223,2204,2355,Tag0,unknown
1500042129228,0,70,1.5380859375E-5,40,44,56,563535,85640,16834,2988,19583,6223,2204,2355,Tag0,unknown
1500042129229,0,107,2.35107421875E-5,40,44,56,563535,85640,16834,2988,19583,6223,2204,2355,Tag0,unknown
1500042129229,0,69,1.51611328125E-5,40,44,56,563535,85640,16834,2988,19583,6223,2204,2355,Tag0,unknown
1500042129233,0,38,8.349609375E-6,40,44,56,563535,85640,16834,2988,19583,6223,2204,2355,Tag0,unknown
1500042129233,0,65,1.42822265625E-5,40,44,56,563535,85640,16834,2988,19583,6223,2204,2355,Tag0,unknown
1500042129233,0,115,2.52685546875E-5,40,44,56,563535,85640,16834,2988,19583,6223,2204,2355,Tag0,unknown
1500042129234,0,-111,-2.43896484375E-5,40,44,56,563535,85640,16834,2988,19583,6223,2204,2355,Tag0,unknown
1500042129234,0,97,2.13134765625E-5,40,44,56,563535,85640,16834,2988,19583,6223,2204,2355,Tag0,unknown
1500042129234,0,37,8.1298828125E-6,40,44,56,563535,85640,16834,2988,19583,6223,2204,2355,Tag0,unknown
1500042129234,0,52,1.142578125E-5,40,44,56,563535,85640,16834,2988,19583,6223,2204,2355,Tag0,unknown
1500042129235,0,-125,-2.74658203125E-5,40,44,56,563535,85640,16834,2988,19583,6223,2204,2355,Tag0,unknown
1500042129235,0,-63,-1.38427734375E-5,40,44,56,563535,85640,16834,2988,19583,6223,2204,2355,Tag0,unknown
1500042129235,0,-79,-1.7358398437500003E-5,40,44,56,563535,85640,16834,2988,19583,6223,2204,2355,Tag0,unknown
1500042129235,0,-124,-2.724609375E-5,40,44,56,563535,85640,16834,2988,19583,6223,2204,2355,Tag0,unknown
1500042129236,0,-123,-2.70263671875E-5,40,44,56,563535,85640,16834,2988,19583,6223,2204,2355,Tag0,unknown
1500042129236,0,-84,-1.8457031250000004E-5,40,44,56,563535,85640,16834,2988,19583,6223,2204,2355,Tag0,unknown
1500042129236,0,-53,-1.1645507812500002E-5,40,44,56,563535,85640,16834,2988,19583,6223,2204,2355,Tag0,unknown
1500042129236,0,-79,-1.7358398437500003E-5,40,44,56,563535,85640,16834,2988,19583,6223,2204,2355,Tag0,unknown
1500042129237,0,107,2.35107421875E-5,40,44,56,563535,85640,16834,2988,19583,6223,2204,2355,Tag0,unknown
1500042129237,0,71,1.56005859375E-5,40,44,56,563535,85640,16834,2988,19583,6223,2204,2355,Tag0,unknown
1500042129237,0,102,2.2412109374999998E-5,40,44,56,563535,85640,16834,2988,19583,6223,2204,2355,Tag0,unknown
1500042129237,0,-109,-2.39501953125E-5,40,44,56,563535,85640,16834,2988,19583,6223,2204,2355,Tag0,unknown
1500042129237,0,-112,-2.4609375E-5,40,44,56,563535,85640,16834,2988,19583,6223,2204,2355,Tag0,unknown
1500042129268,0,82,1.8017578124999998E-5,40,44,56,563535,85640,16834,2988,19583,6223,2204,2355,Tag0,unknown
1500042129269,0,33,7.2509765625E-6,40,44,56,563535,85640,16834,2988,19583,6223,2204,2355,Tag0,unknown
1500042129276,0,38,8.349609375E-6,40,44,56,563535,85640,16834,2988,19583,6223,2204,2355,Tag0,unknown
1500042129277,0,82,1.8017578124999998E-5,40,44,56,563535,85640,16834,2988,19583,6223,2204,2355,Tag0,unknown
1500042129277,0,84,1.8457031250000004E-5,40,44,56,563535,85640,16834,2988,19583,6223,2204,2355,Tag0,unknown
1500042129277,0,12,2.63671875E-6,40,44,56,563535,85640,16834,2988,19583,6223,2204,2355,Tag0,unknown
1500042129278,0,-314,-6.8994140625E-5,40,44,56,563535,85640,16834,2988,19583,6223,2204,2355,Tag0,unknown
1500042129278,0,-313,-6.87744140625E-5,40,44,56,563535,85640,16834,2988,19583,6223,2204,2355,Tag0,unknown
1500042129278,0,-269,-5.9106445312499996E-5,40,44,56,563535,85640,16834,2988,19583,6223,2204,2355,Tag0,unknown
1500042129278,0,-268,-5.8886718750000006E-5,40,44,56,563535,85640,16834,2988,19583,6223,2204,2355,Tag0,unknown
1500042129278,0,-333,-7.316894531249999E-5,40,44,56,563535,85640,16834,2988,19583,6223,2204,2355,Tag0,unknown
1500042129279,0,-136,-2.9882812500000002E-5,40,44,56,563535,85640,16834,2988,19583,6223,2204,2355,Tag0,unknown
1500042129279,0,-129,-2.8344726562500002E-5,40,44,56,563535,85640,16834,2988,19583,6223,2204,2355,Tag0,unknown
1500042129279,0,-340,-7.470703125E-5,40,44,56,563535,85640,16834,2988,19583,6223,2204,2355,Tag0,unknown
1500042129279,0,-349,-7.668457031250001E-5,40,44,56,563535,85640,16834,2988,19583,6223,2204,2355,Tag0,unknown
1500042129280,0,-225,-4.94384765625E-5,40,44,56,563535,85640,16834,2988,19583,6223,2204,2355,Tag0,unknown
1500042129280,0,-612,-1.3447265625000002E-4,40,44,56,563535,85640,16834,2988,19583,6223,2204,2355,Tag0,unknown
1500042129280,0,-630,-1.38427734375E-4,40,44,56,563535,85640,16834,2988,19583,6223,2204,2355,Tag0,unknown
1500042129280,0,-557,-1.223876953125E-4,40,44,56,563535,85640,16834,2988,19583,6223,2204,2355,Tag0,unknown
1500042129281,0,-514,-1.12939453125E-4,40,44,56,563535,85640,16834,2988,19583,6223,2204,2355,Tag0,unknown
1500042129305,0,-562,-1.23486328125E-4,40,44,56,563535,85640,16834,2988,19583,6223,2204,2355,Tag0,unknown
1500042129306,0,-626,-1.37548828125E-4,40,44,56,563535,85640,16834,2988,19583,6223,2204,2355,Tag0,unknown
1500042129327,0,-601,-1.3205566406249998E-4,40,44,56,563535,85640,16834,2988,19583,6223,2204,2355,Tag0,unknown
1500042129327,0,-252,-5.537109375E-5,40,44,56,563535,85640,16834,2988,19583,6223,2204,2355,Tag0,unknown
1500042129328,0,-164,-3.6035156249999995E-5,40,44,56,563535,85640,16834,2988,19583,6223,2204,2355,Tag0,unknown
1500042129328,0,-151,-3.31787109375E-5,40,44,56,563535,85640,16834,2988,19583,6223,2204,2355,Tag0,unknown
1500042129329,0,-179,-3.93310546875E-5,40,44,56,563535,85640,16834,2988,19583,6223,2204,2355,Tag0,unknown
1500042129329,0,-173,-3.80126953125E-5,40,44,56,563535,85640,16834,2988,19583,6223,2204,2355,Tag0,unknown
1500042129329,0,-359,-7.88818359375E-5,40,44,56,563535,85640,16834,2988,19583,6223,2204,2355,Tag0,unknown
1500042129330,0,-282,-6.1962890625E-5,40,44,56,563535,85640,16834,2988,19583,6223,2204,2355,Tag0,unknown
1500042129330,0,-284,-6.240234375E-5,40,44,56,563535,85640,16834,2988,19583,6223,2204,2355,Tag0,unknown
1500042129331,0,-337,-7.40478515625E-5,40,44,56,563535,85640,16834,2988,19583,6223,2204,2355,Tag0,unknown
1500042129331,0,-329,-7.229003906250001E-5,40,44,56,563535,85640,16834,2988,19583,6223,2204,2355,Tag0,unknown
1500042129331,0,0,0.0,40,44,56,563535,85640,16834,2988,19583,6223,2204,2355,Tag0,unknown
1500042129332,0,87,1.91162109375E-5,40,44,56,563535,85640,16834,2988,19583,6223,2204,2355,Tag0,unknown
1500042129332,0,90,1.9775390625E-5,40,44,56,563535,85640,16834,2988,19583,6223,2204,2355,Tag0,unknown
1500042129333,0,23,5.0537109375E-6,40,44,56,563535,85640,16834,2988,19583,6223,2204,2355,Tag0,unknown
1500042129333,0,-267,-5.86669921875E-5,40,44,56,563535,85640,16834,2988,19583,6223,2204,2355,Tag0,unknown
1500042129334,0,5,1.0986328125E-6,40,44,56,563535,85640,16834,2988,19583,6223,2204,2355,Tag0,unknown
1500042129334,0,37,8.1298828125E-6,40,44,56,563535,85640,16834,2988,19583,6223,2204,2355,Tag0,unknown
1500042129343,0,23,5.0537109375E-6,40,44,56,563535,85640,16834,2988,19583,6223,2204,2355,Tag0,unknown
1500042129359,0,-300,-6.591796875E-5,40,44,56,563535,85640,16834,2988,19583,6223,2204,2355,Tag0,unknown
1500042129359,0,-329,-7.229003906250001E-5,40,44,56,563535,85640,16834,2988,19583,6223,2204,2355,Tag0,unknown
1500042129360,0,-285,-6.26220703125E-5,40,44,56,563535,85640,16834,2988,19583,6223,2204,2355,Tag0,unknown
1500042129360,0,32,7.03125E-6,40,44,56,563535,85640,16834,2988,19583,6223,2204,2355,Tag0,unknown
1500042129361,0,58,1.2744140625E-5,40,44,56,563535,85640,16834,2988,19583,6223,2204,2355,Tag0,unknown
1500042129361,0,17,3.7353515625000003E-6,40,44,56,563535,85640,16834,2988,19583,6223,2204,2355,Tag0,unknown
1500042129362,0,-299,-6.56982421875E-5,40,44,56,563535,85640,16834,2988,19583,6223,2204,2355,Tag0,unknown
1500042129362,0,-295,-6.48193359375E-5,40,44,56,563535,85640,16834,2988,19583,6223,2204,2355,Tag0,unknown
1500042129363,0,38,8.349609375E-6,40,44,56,563535,85640,16834,2988,19583,6223,2204,2355,Tag0,unknown
1500042129363,0,87,1.91162109375E-5,40,44,56,563535,85640,16834,2988,19583,6223,2204,2355,Tag0,unknown
1500042129364,0,48,1.0546875E-5,40,44,56,563535,85640,16834,2988,19583,6223,2204,2355,Tag0,unknown
1500042129364,0,-269,-5.9106445312499996E-5,40,44,56,563535,85640,16834,2988,19583,6223,2204,2355,Tag0,unknown
1500042129365,0,-290,-6.3720703125E-5,40,44,56,563535,85640,16834,2988,19583,6223,2204,2355,Tag0,unknown
1500042129365,0,-275,-6.04248046875E-5,40,44,56,563535,85640,16834,2988,19583,6223,2204,2355,Tag0,unknown
1500042129365,0,1,2.197265625E-7,40,44,56,563535,85640,16834,2988,19583,6223,2204,2355,Tag0,unknown
1500042129365,0,-280,-6.15234375E-5,40,44,56,563535,85640,16834,2988,19583,6223,2204,2355,Tag0,unknown
1500042129365,0,-327,-7.18505859375E-5,40,44,56,563535,85640,16834,2988,19583,6223,2204,2355,Tag0,unknown
1500042129366,0,-337,-7.40478515625E-5,40,44,56,563535,85640,16834,2988,19583,6223,2204,2355,Tag0,unknown
1500042129366,0,-277,-6.0864257812500005E-5,40,44,56,563535,85640,16834,2988,19583,6223,2204,2355,Tag0,unknown
1500042129384,0,37,8.1298828125E-6,40,44,56,563535,85640,16834,2988,19583,6223,2204,2355,Tag0,unknown
1500042129393,0,28,6.15234375E-6,40,44,56,563535,85640,16834,2988,19583,6223,2204,2355,Tag0,unknown
1500042129393,0,-278,-6.108398437500001E-5,40,44,56,563535,85640,16834,2988,19583,6223,2204,2355,Tag0,unknown
1500042129394,0,-285,-6.26220703125E-5,40,44,56,563535,85640,16834,2988,19583,6223,2204,2355,Tag0,unknown
1500042129394,0,18,3.955078125E-6,40,44,56,563535,85640,16834,2988,19583,6223,2204,2355,Tag0,unknown
1500042129395,0,85,1.86767578125E-5,40,44,56,563535,85640,16834,2988,19583,6223,2204,2355,Tag0,unknown
1500042129395,0,83,1.82373046875E-5,40,44,56,563535,85640,16834,2988,19583,6223,2204,2355,Tag0,unknown
1500042129396,0,12,2.63671875E-6,40,44,56,563535,85640,16834,2988,19583,6223,2204,2355,Tag0,unknown
1500042129396,0,-283,-6.218261718750001E-5,40,44,56,563535,85640,16834,2988,19583,6223,2204,2355,Tag0,unknown
1500042129397,0,-260,-5.712890625E-5,40,44,56,563535,85640,16834,2988,19583,6223,2204,2355,Tag0,unknown
1500042129402,0,24,5.2734375E-6,40,44,56,563535,85640,16834,2988,19583,6223,2204,2355,Tag0,unknown
1500042129402,0,-268,-5.8886718750000006E-5,40,44,56,563535,85640,16834,2988,19583,6223,2204,2355,Tag0,unknown
1500042129403,0,-362,-7.954101562500001E-5,40,44,56,563535,85640,16834,2988,19583,6223,2204,2355,Tag0,unknown
1500042129403,0,-154,-3.3837890625E-5,40,44,56,563535,85640,16834,2988,19583,6223,2204,2355,Tag0,unknown
1500042129403,0,-129,-2.8344726562500002E-5,40,44,56,563535,85640,16834,2988,19583,6223,2204,2355,Tag0,unknown
1500042129403,0,-317,-6.96533203125E-5,40,44,56,563535,85640,16834,2988,19583,6223,2204,2355,Tag0,unknown
1500042129404,0,-314,-6.8994140625E-5,40,44,56,563535,85640,16834,2988,19583,6223,2204,2355,Tag0,unknown
1500042129404,0,-154,-3.3837890625E-5,40,44,56,563535,85640,16834,2988,19583,6223,2204,2355,Tag0,unknown
1500042129405,0,-232,-5.09765625E-5,40,44,56,563535,85640,16834,2988,19583,6223,2204,2355,Tag0,unknown
1500042129405,0,-214,-4.7021484375E-5,40,44,56,563535,85640,16834,2988,19583,6223,2204,2355,Tag0,unknown
1500042129422,0,-172,-3.7792968750000005E-5,40,44,56,563535,85640,16834,2988,19583,6223,2204,2355,Tag0,unknown
1500042129427,0,-242,-5.3173828125000005E-5,40,44,56,563535,85640,16834,2988,19583,6223,2204,2355,Tag0,unknown
1500042129427,0,-389,-8.54736328125E-5,40,44,56,563535,85640,16834,2988,19583,6223,2204,2355,Tag0,unknown
1500042129428,0,-470,-1.03271484375E-4,40,44,56,563535,85640,16834,2988,19583,6223,2204,2355,Tag0,unknown
1500042129428,0,-437,-9.602050781250001E-5,40,44,56,563535,85640,16834,2988,19583,6223,2204,2355,Tag0,unknown
1500042129429,0,-614,-1.34912109375E-4,40,44,56,563535,85640,16834,2988,19583,6223,2204,2355,Tag0,unknown
1500042129429,0,-564,-1.2392578125E-4,40,44,56,563535,85640,16834,2988,19583,6223,2204,2355,Tag0,unknown
1500042129430,0,-601,-1.3205566406249998E-4,40,44,56,563535,85640,16834,2988,19583,6223,2204,2355,Tag0,unknown
1500042129430,0,-393,-8.63525390625E-5,40,44,56,563535,85640,16834,2988,19583,6223,2204,2355,Tag0,unknown
1500042129431,0,-627,-1.377685546875E-4,40,44,56,563535,85640,16834,2988,19583,6223,2204,2355,Tag0,unknown
1500042129432,0,-515,-1.131591796875E-4,40,44,56,563535,85640,16834,2988,19583,6223,2204,2355,Tag0,unknown
1500042129432,0,-139,-3.0541992187500004E-5,40,44,56,563535,85640,16834,2988,19583,6223,2204,2355,Tag0,unknown
1500042129433,0,-379,-8.32763671875E-5,40,44,56,563535,85640,16834,2988,19583,6223,2204,2355,Tag0,unknown
1500042129433,0,-147,-3.22998046875E-5,40,44,56,563535,85640,16834,2988,19583,6223,2204,2355,Tag0,unknown
1500042129433,0,-373,-8.19580078125E-5,40,44,56,563535,85640,16834,2988,19583,6223,2204,2355,Tag0,unknown
1500042129433,0,-327,-7.18505859375E-5,40,44,56,563535,85640,16834,2988,19583,6223,2204,2355,Tag0,unknown
1500042129433,0,-315,-6.92138671875E-5,40,44,56,563535,85640,16834,2988,19583,6223,2204,2355,Tag0,unknown
1500042129434,0,-380,-8.349609375E-5,40,44,56,563535,85640,16834,2988,19583,6223,2204,2355,Tag0,unknown
1500042129434,0,-212,-4.6582031250000006E-5,40,44,56,563535,85640,16834,2988,19583,6223,2204,2355,Tag0,unknown
1500042129434,0,-247,-5.42724609375E-5,40,44,56,563535,85640,16834,2988,19583,6223,2204,2355,Tag0,unknown
1500042129459,0,-220,-4.833984375E-5,40,44,56,563535,85640,16834,2988,19583,6223,2204,2355,Tag0,unknown
1500042129477,0,-210,-4.6142578125E-5,40,44,56,563535,85640,16834,2988,19583,6223,2204,2355,Tag0,unknown
1500042129477,0,-514,-1.12939453125E-4,40,44,56,563535,85640,16834,2988,19583,6223,2204,2355,Tag0,unknown
1500042129478,0,-588,-1.2919921875E-4,40,44,56,563535,85640,16834,2988,19583,6223,2204,2355,Tag0,unknown
1500042129478,0,-617,-1.355712890625E-4,40,44,56,563535,85640,16834,2988,19583,6223,2204,2355,Tag0,unknown
1500042129479,0,-582,-1.27880859375E-4,40,44,56,563535,85640,16834,2988,19583,6223,2204,2355,Tag0,unknown
1500042129479,0,-530,-1.16455078125E-4,40,44,56,563535,85640,16834,2988,19583,6223,2204,2355,Tag0,unknown
1500042129480,0,-539,-1.1843261718750001E-4,40,44,56,563535,85640,16834,2988,19583,6223,2204,2355,Tag0,unknown
1500042129480,0,-610,-1.34033203125E-4,40,44,56,563535,85640,16834,2988,19583,6223,2204,2355,Tag0,unknown
1500042129481,0,-388,-8.525390625E-5,40,44,56,563535,85640,16834,2988,19583,6223,2204,2355,Tag0,unknown
1500042129481,0,-581,-1.276611328125E-4,40,44,56,563535,85640,16834,2988,19583,6223,2204,2355,Tag0,unknown
1500042129482,0,-228,-5.0097656250000005E-5,40,44,56,563535,85640,16834,2988,19583,6223,2204,2355,Tag0,unknown
1500042129482,0,-201,-4.41650390625E-5,40,44,56,563535,85640,16834,2988,19583,6223,2204,2355,Tag0,unknown
1500042129483,0,-248,-5.44921875E-5,40,40,56,1386108,859922,16762918,16753313,17547,77441,9251,5334,Tag0,unknown
1500042129483,0,-515,-1.131591796875E-4,40,40,56,1386108,859922,16762918,16753313,17547,77441,9251,5334,Tag0,unknown
1500042129499,0,-205,-4.50439453125E-5,40,40,56,1386108,859922,16762918,16753313,17547,77441,9251,5334,Tag0,unknown
1500042129500,0,-381,-8.371582031250001E-5,40,40,56,1386108,859922,16762918,16753313,17547,77441,9251,5334,Tag0,unknown
1500042129501,0,-344,-7.558593750000001E-5,40,40,56,1386108,859922,16762918,16753313,17547,77441,9251,5334,Tag0,unknown
1500042129501,0,-146,-3.2080078125000004E-5,40,40,56,1386108,859922,16762918,16753313,17547,77441,9251,5334,Tag0,unknown
1500042129502,0,-193,-4.2407226562500005E-5,40,40,56,1386108,859922,16762918,16753313,17547,77441,9251,5334,Tag0,unknown
1500042129502,0,-136,-2.9882812500000002E-5,40,40,56,1386108,859922,16762918,16753313,17547,77441,9251,5334,Tag0,unknown
1500042129503,0,-278,-6.108398437500001E-5,40,40,56,1386108,859922,16762918,16753313,17547,77441,9251,5334,Tag0,unknown
1500042129503,0,41,9.008789062499999E-6,40,40,56,1386108,859922,16762918,16753313,17547,77441,9251,5334,Tag0,unknown
1500042129504,0,17,3.7353515625000003E-6,40,40,56,1386108,859922,16762918,16753313,17547,77441,9251,5334,Tag0,unknown
1500042129504,0,-289,-6.35009765625E-5,40,40,56,1386108,859922,16762918,16753313,17547,77441,9251,5334,Tag0,unknown
1500042129505,0,-284,-6.240234375E-5,40,40,56,1386108,859922,16762918,16753313,17547,77441,9251,5334,Tag0,unknown
1500042129505,0,22,4.833984375E-6,40,40,56,1386108,859922,16762918,16753313,17547,77441,9251,5334,Tag0,unknown
1500042129505,0,85,1.86767578125E-5,40,40,56,1386108,859922,16762918,16753313,17547,77441,9251,5334,Tag0,unknown
1500042129506,0,83,1.82373046875E-5,40,40,56,1386108,859922,16762918,16753313,17547,77441,9251,5334,Tag0,unknown
1500042129506,0,38,8.349609375E-6,40,40,56,1386108,859922,16762918,16753313,17547,77441,9251,5334,Tag0,unknown
1500042129506,0,40,8.7890625E-6,40,40,56,1386108,859922,16762918,16753313,17547,77441,9251,5334,Tag0,unknown
1500042129507,0,112,2.4609375E-5,40,40,56,1386108,859922,16762918,16753313,17547,77441,9251,5334,Tag0,unknown
1500042129507,0,-75,-1.64794921875E-5,40,40,56,1386108,859922,16762918,16753313,17547,77441,9251,5334,Tag0,unknown
1500042129508,0,-74,-1.6259765625E-5,40,40,56,1386108,859922,16762918,16753313,17547,77441,9251,5334,Tag0,unknown
1500042129508,0,-116,-2.548828125E-5,40,40,56,1386108,859922,16762918,16753313,17547,77441,9251,5334,Tag0,unknown
1500042129531,0,-102,-2.2412109374999998E-5,40,40,56,1386108,859922,16762918,16753313,17547,77441,9251,5334,Tag0,unknown
1500042129532,0,-41,-9.008789062499999E-6,40,40,56,1386108,859922,16762918,16753313,17547,77441,9251,5334,Tag0,unknown
1500042129532,0,263,5.7788085937500005E-5,40,40,56,1386108,859922,16762918,16753313,17547,77441,9251,5334,Tag0,unknown
1500042129544,0,-27,-5.9326171875000005E-6,40,40,56,1386108,859922,16762918,16753313,17547,77441,9251,5334,Tag0,unknown
1500042129544,0,-128,-2.8125E-5,40,40,56,1386108,859922,16762918,16753313,17547,77441,9251,5334,Tag0,unknown
1500042129544,0,73,1.6040039062500002E-5,40,40,56,1386108,859922,16762918,16753313,17547,77441,9251,5334,Tag0,unknown
1500042129545,0,119,2.6147460937500004E-5,40,40,56,1386108,859922,16762918,16753313,17547,77441,9251,5334,Tag0,unknown
1500042129545,0,-58,-1.2744140625E-5,40,40,56,1386108,859922,16762918,16753313,17547,77441,9251,5334,Tag0,unknown
1500042129545,0,-46,-1.0107421875E-5,40,40,56,1386108,859922,16762918,16753313,17547,77441,9251,5334,Tag0,unknown
1500042129545,0,-107,-2.35107421875E-5,40,40,56,1386108,859922,16762918,16753313,17547,77441,9251,5334,Tag0,unknown
1500042129546,0,115,2.52685546875E-5,40,40,56,1386108,859922,16762918,16753313,17547,77441,9251,5334,Tag0,unknown
1500042129546,0,-109,-2.39501953125E-5,40,40,56,1386108,859922,16762918,16753313,17547,77441,9251,5334,Tag0,unknown
1500042129546,0,-37,-8.1298828125E-6,40,40,56,1386108,859922,16762918,16753313,17547,77441,9251,5334,Tag0,unknown
1500042129546,0,257,5.64697265625E-5,40,40,56,1386108,859922,16762918,16753313,17547,77441,9251,5334,Tag0,unknown
1500042129547,0,-64,-1.40625E-5,40,40,56,1386108,859922,16762918,16753313,17547,77441,9251,5334,Tag0,unknown
1500042129547,0,114,2.5048828125000003E-5,40,40,56,1386108,859922,16762918,16753313,17547,77441,9251,5334,Tag0,unknown
1500042129547,0,118,2.5927734375E-5,40,40,56,1386108,859922,16762918,16753313,17547,77441,9251,5334,Tag0,unknown
1500042129547,0,-72,-1.58203125E-5,40,40,56,1386108,859922,16762918,16753313,17547,77441,9251,5334,Tag0,unknown
1500042129548,0,-39,-8.5693359375E-6,40,40,56,1386108,859922,16762918,16753313,17547,77441,9251,5334,Tag0,unknown
1500042129548,0,-85,-1.86767578125E-5,40,40,56,1386108,859922,16762918,16753313,17547,77441,9251,5334,Tag0,unknown
1500042129568,0,-105,-2.30712890625E-5,40,40,56,1386108,859922,16762918,16753313,17547,77441,9251,5334,Tag0,unknown
1500042129568,0,-48,-1.0546875E-5,40,40,56,1386108,859922,16762918,16753313,17547,77441,9251,5334,Tag0,unknown
1500042129578,0,301,6.613769531250001E-5,40,40,56,1386108,859922,16762918,16753313,17547,77441,9251,5334,Tag0,unknown
1500042129579,0,373,8.19580078125E-5,40,40,56,1386108,859922,16762918,16753313,17547,77441,9251,5334,Tag0,unknown
1500042129579,0,346,7.6025390625E-5,40,40,56,1386108,859922,16762918,16753313,17547,77441,9251,5334,Tag0,unknown
1500042129580,0,281,6.17431640625E-5,40,40,56,1386108,859922,16762918,16753313,17547,77441,9251,5334,Tag0,unknown
1500042129580,0,275,6.04248046875E-5,40,40,56,1386108,859922,16762918,16753313,17547,77441,9251,5334,Tag0,unknown
1500042129581,0,332,7.294921875E-5,40,40,56,1386108,859922,16762918,16753313,17547,77441,9251,5334,Tag0,unknown
1500042129581,0,354,7.778320312500001E-5,40,40,56,1386108,859922,16762918,16753313,17547,77441,9251,5334,Tag0,unknown
1500042129582,0,260,5.712890625E-5,40,40,56,1386108,859922,16762918,16753313,17547,77441,9251,5334,Tag0,unknown
1500042129582,0,-110,-2.4169921875E-5,40,40,56,1386108,859922,16762918,16753313,17547,77441,9251,5334,Tag0,unknown
1500042129583,0,-126,-2.7685546875E-5,40,40,56,1386108,859922,16762918,16753313,17547,77441,9251,5334,Tag0,unknown
1500042129583,0,-39,-8.5693359375E-6,40,40,56,1386108,859922,16762918,16753313,17547,77441,9251,5334,Tag0,unknown
1500042129584,0,333,7.316894531249999E-5,40,40,56,1386108,859922,16762918,16753313,17547,77441,9251,5334,Tag0,unknown
1500042129585,0,349,7.668457031250001E-5,40,40,56,1386108,859922,16762918,16753313,17547,77441,9251,5334,Tag0,unknown
1500042129585,0,292,6.416015625000001E-5,40,40,56,1386108,859922,16762918,16753313,17547,77441,9251,5334,Tag0,unknown
1500042129585,0,291,6.39404296875E-5,40,40,56,1386108,859922,16762918,16753313,17547,77441,9251,5334,Tag0,unknown
1500042129585,0,128,2.8125E-5,40,40,56,1386108,859922,16762918,16753313,17547,77441,9251,5334,Tag0,unknown
1500042129585,0,215,4.72412109375E-5,40,40,56,1386108,859922,16762918,16753313,17547,77441,9251,5334,Tag0,unknown
1500042129586,0,229,5.03173828125E-5,40,40,56,1386108,859922,16762918,16753313,17547,77441,9251,5334,Tag0,unknown
1500042129605,0,210,4.6142578125E-5,40,40,56,1386108,859922,16762918,16753313,17547,77441,9251,5334,Tag0,unknown
1500042129612,0,513,1.127197265625E-4,40,40,56,1386108,859922,16762918,16753313,17547,77441,9251,5334,Tag0,unknown
1500042129613,0,615,1.351318359375E-4,40,40,56,1386108,859922,16762918,16753313,17547,77441,9251,5334,Tag0,unknown
1500042129613,0,454,9.9755859375E-5,40,40,56,1386108,859922,16762918,16753313,17547,77441,9251,5334,Tag0,unknown
1500042129614,0,469,1.0305175781250001E-4,40,40,56,1386108,859922,16762918,16753313,17547,77441,9251,5334,Tag0,unknown
1500042129614,0,422,9.2724609375E-5,40,40,56,1386108,859922,16762918,16753313,17547,77441,9251,5334,Tag0,unknown
1500042129615,0,405,8.89892578125E-5,40,40,56,1386108,859922,16762918,16753313,17547,77441,9251,5334,Tag0,unknown
1500042129615,0,461,1.0129394531250001E-4,40,40,56,1386108,859922,16762918,16753313,17547,77441,9251,5334,Tag0,unknown
1500042129616,0,790,1.73583984375E-4,40,40,56,1386108,859922,16762918,16753313,17547,77441,9251,5334,Tag0,unknown
1500042129616,0,806,1.7709960937499998E-4,40,40,56,1386108,859922,16762918,16753313,17547,77441,9251,5334,Tag0,unknown
1500042129629,0,779,1.7116699218750001E-4,40,40,56,1386108,859922,16762918,16753313,17547,77441,9251,5334,Tag0,unknown
1500042129630,0,775,1.702880859375E-4,40,40,56,1386108,859922,16762918,16753313,17547,77441,9251,5334,Tag0,unknown
1500042129630,0,820,1.8017578125E-4,40,40,56,1386108,859922,16762918,16753313,17547,77441,9251,5334,Tag0,unknown
1500042129631,0,877,1.9270019531250003E-4,40,40,56,1386108,859922,16762918,16753313,17547,77441,9251,5334,Tag0,unknown
1500042129632,0,888,1.951171875E-4,40,40,56,1386108,859922,16762918,16753313,17547,77441,9251,5334,Tag0,unknown
1500042129632,0,812,1.7841796875000003E-4,40,40,56,1386108,859922,16762918,16753313,17547,77441,9251,5334,Tag0,unknown
1500042129633,0,477,1.048095703125E-4,40,40,56,1386108,859922,16762918,16753313,17547,77441,9251,5334,Tag0,unknown
1500042129633,0,474,1.0415039062500001E-4,40,40,56,1386108,859922,16762918,16753313,17547,77441,9251,5334,Tag0,unknown
1500042129634,0,778,1.70947265625E-4,40,40,56,1386108,859922,16762918,16753313,17547,77441,9251,5334,Tag0,unknown
1500042129634,0,789,1.7336425781250002E-4,40,40,56,1386108,859922,16762918,16753313,17547,77441,9251,5334,Tag0,unknown
1500042129647,0,467,1.026123046875E-4,40,40,56,1386108,859922,16762918,16753313,17547,77441,9251,5334,Tag0,unknown
1500042129663,0,394,8.6572265625E-5,40,40,56,1386108,859922,16762918,16753313,17547,77441,9251,5334,Tag0,unknown
1500042129663,0,388,8.525390625E-5,40,40,56,1386108,859922,16762918,16753313,17547,77441,9251,5334,Tag0,unknown
1500042129664,0,438,9.6240234375E-5,40,40,56,1386108,859922,16762918,16753313,17547,77441,9251,5334,Tag0,unknown
1500042129664,0,482,1.05908203125E-4,40,40,56,1386108,859922,16762918,16753313,17547,77441,9251,5334,Tag0,unknown
1500042129665,0,420,9.228515625E-5,40,40,56,1386108,859922,16762918,16753313,17547,77441,9251,5334,Tag0,unknown
1500042129665,0,544,1.1953125000000001E-4,40,40,56,1386108,859922,16762918,16753313,17547,77441,9251,5334,Tag0,unknown
1500042129666,0,210,4.6142578125E-5,40,40,56,1386108,859922,16762918,16753313,17547,77441,9251,5334,Tag0,unknown
1500042129666,0,236,5.185546875E-5,40,40,56,1386108,859922,16762918,16753313,17547,77441,9251,5334,Tag0,unknown
1500042129666,0,545,1.197509765625E-4,40,40,56,1386108,859922,16762918,16753313,17547,77441,9251,5334,Tag0,unknown
1500042129667,0,245,5.38330078125E-5,40,40,56,1386108,859922,16762918,16753313,17547,77441,9251,5334,Tag0,unknown
1500042129667,0,139,3.0541992187500004E-5,40,40,56,1386108,859922,16762918,16753313,17547,77441,9251,5334,Tag0,unknown
1500042129668,0,340,7.470703125E-5,40,40,56,1386108,859922,16762918,16753313,17547,77441,9251,5334,Tag0,unknown
1500042129668,0,342,7.5146484375E-5,40,40,56,1386108,859922,16762918,16753313,17547,77441,9251,5334,Tag0,unknown
1500042129669,0,376,8.261718750000001E-5,40,40,56,1386108,859922,16762918,16753313,17547,77441,9251,5334,Tag0,unknown
1500042129669,0,356,7.822265625E-5,40,40,56,1386108,859922,16762918,16753313,17547,77441,9251,5334,Tag0,unknown
1500042129669,0,261,5.73486328125E-5,40,40,56,1386108,859922,16762918,16753313,17547,77441,9251,5334,Tag0,unknown
1500042129670,0,-73,-1.6040039062500002E-5,40,40,56,1386108,859922,16762918,16753313,17547,77441,9251,5334,Tag0,unknown
1500042129670,0,-78,-1.7138671875E-5,40,40,56,1386108,859922,16762918,16753313,17547,77441,9251,5334,Tag0,unknown
1500042129670,0,-52,-1.142578125E-5,40,40,56,1386108,859922,16762918,16753313,17547,77441,9251,5334,Tag0,unknown
1500042129685,0,-74,-1.6259765625E-5,40,40,56,1386108,859922,16762918,16753313,17547,77441,9251,5334,Tag0,unknown
1500042129698,0,93,2.04345703125E-5,40,40,56,1386108,859922,16762918,16753313,17547,77441,9251,5334,Tag0,unknown
1500042129699,0,45,9.8876953125E-6,40,40,56,1386108,859922,16762918,16753313,17547,77441,9251,5334,Tag0,unknown
1500042129699,0,84,1.8457031250000004E-5,40,40,56,1386108,859922,16762918,16753313,17547,77441,9251,5334,Tag0,unknown
1500042129700,0,-106,-2.3291015625000003E-5,40,40,56,1386108,859922,16762918,16753313,17547,77441,9251,5334,Tag0,unknown
1500042129701,0,-103,-2.26318359375E-5,40,40,56,1386108,859922,16762918,16753313,17547,77441,9251,5334,Tag0,unknown
1500042129702,0,55,1.20849609375E-5,40,40,56,1386108,859922,16762918,16753313,17547,77441,9251,5334,Tag0,unknown
1500042129702,0,-277,-6.0864257812500005E-5,40,40,56,1386108,859922,16762918,16753313,17547,77441,9251,5334,Tag0,unknown
1500042129703,0,-268,-5.8886718750000006E-5,40,40,56,1386108,859922,16762918,16753313,17547,77441,9251,5334,Tag0,unknown
1500042129704,0,34,7.4707031250000005E-6,40,40,56,1386108,859922,16762918,16753313,17547,77441,9251,5334,Tag0,unknown
1500042129705,0,37,8.1298828125E-6,40,40,56,1386108,859922,16762918,16753313,17547,77441,9251,5334,Tag0,unknown
1500042129705,0,-305,-6.70166015625E-5,40,40,56,1386108,859922,16762918,16753313,17547,77441,9251,5334,Tag0,unknown
1500042129706,0,-132,-2.900390625E-5,40,40,56,1386108,859922,16762918,16753313,17547,77441,9251,5334,Tag0,unknown
1500042129706,0,-379,-8.32763671875E-5,40,40,56,1386108,859922,16762918,16753313,17547,77441,9251,5334,Tag0,unknown
1500042129706,0,-300,-6.591796875E-5,40,40,56,1386108,859922,16762918,16753313,17547,77441,9251,5334,Tag0,unknown
1500042129707,0,6,1.318359375E-6,40,40,56,1386108,859922,16762918,16753313,17547,77441,9251,5334,Tag0,unknown
1500042129707,0,-321,-7.053222656250001E-5,40,40,56,1386108,859922,16762918,16753313,17547,77441,9251,5334,Tag0,unknown
1500042129708,0,-181,-3.9770507812500004E-5,40,40,56,1386108,859922,16762918,16753313,17547,77441,9251,5334,Tag0,unknown
1500042129708,0,-229,-5.03173828125E-5,40,40,56,1386108,859922,16762918,16753313,17547,77441,9251,5334,Tag0,unknown
1500042129709,0,-184,-4.04296875E-5,40,40,56,1386108,859922,16762918,16753313,17547,77441,9251,5334,Tag0,unknown
1500042129728,0,-135,-2.96630859375E-5,40,40,56,1386108,859922,16762918,16753313,17547,77441,9251,5334,Tag0,unknown
1500042129748,0,-162,-3.5595703125E-5,40,40,56,1386108,859922,16762918,16753313,17547,77441,9251,5334,Tag0,unknown
1500042129748,0,-221,-4.85595703125E-5,40,40,56,1386108,859922,16762918,16753313,17547,77441,9251,5334,Tag0,unknown
1500042129749,0,-247,-5.42724609375E-5,40,40,56,1386108,859922,16762918,16753313,17547,77441,9251,5334,Tag0,unknown
1500042129750,0,-226,-4.9658203125E-5,40,40,56,1386108,859922,16762918,16753313,17547,77441,9251,5334,Tag0,unknown
1500042129751,0,-186,-4.0869140625E-5,40,40,56,1386108,859922,16762918,16753313,17547,77441,9251,5334,Tag0,unknown
1500042129751,0,-200,-4.39453125E-5,40,40,56,1386108,859922,16762918,16753313,17547,77441,9251,5334,Tag0,unknown
1500042129752,0,-245,-5.38330078125E-5,40,40,56,1386108,859922,16762918,16753313,17547,77441,9251,5334,Tag0,unknown
1500042129753,0,-517,-1.135986328125E-4,40,40,56,1386108,859922,16762918,16753313,17547,77441,9251,5334,Tag0,unknown
1500042129754,0,-221,-4.85595703125E-5,40,40,56,1386108,859922,16762918,16753313,17547,77441,9251,5334,Tag0,unknown
1500042129755,0,-195,-4.28466796875E-5,40,40,56,1386108,859922,16762918,16753313,17547,77441,9251,5334,Tag0,unknown
1500042129755,0,-236,-5.185546875E-5,40,40,56,1386108,859922,16762918,16753313,17547,77441,9251,5334,Tag0,unknown
1500042129756,0,-554,-1.2172851562500001E-4,40,40,56,1386108,859922,16762918,16753313,17547,77441,9251,5334,Tag0,unknown
1500042129757,0,-540,-1.1865234375E-4,40,40,56,1386108,859922,16762918,16753313,17547,77441,9251,5334,Tag0,unknown
1500042129757,0,-216,-4.7460937500000004E-5,40,40,56,1386108,859922,16762918,16753313,17547,77441,9251,5334,Tag0,unknown
1500042129758,0,-149,-3.27392578125E-5,40,40,56,1386108,859922,16762918,16753313,17547,77441,9251,5334,Tag0,unknown
1500042129758,0,-155,-3.40576171875E-5,40,40,56,1386108,859922,16762918,16753313,17547,77441,9251,5334,Tag0,unknown
1500042129759,0,-229,-5.03173828125E-5,40,40,56,1386108,859922,16762918,16753313,17547,77441,9251,5334,Tag0,unknown
1500042129759,0,-520,-1.142578125E-4,40,40,56,1386108,859922,16762918,16753313,17547,77441,9251,5334,Tag0,unknown
1500042129760,0,-213,-4.68017578125E-5,40,40,56,1386108,859922,16762918,16753313,17547,77441,9251,5334,Tag0,unknown
1500042129765,0,-142,-3.1201171875E-5,40,40,56,1386108,859922,16762918,16753313,17547,77441,9251,5334,Tag0,unknown
1500042129766,0,-139,-3.0541992187500004E-5,40,40,56,1386108,859922,16762918,16753313,17547,77441,9251,5334,Tag0,unknown
1500042129767,0,-200,-4.39453125E-5,40,40,56,1386108,859922,16762918,16753313,17547,77441,9251,5334,Tag0,unknown
1500042129768,0,-225,-4.94384765625E-5,40,40,56,1386108,859922,16762918,16753313,17547,77441,9251,5334,Tag0,unknown
1500042129769,0,-187,-4.10888671875E-5,40,40,56,1386108,859922,16762918,16753313,17547,77441,9251,5334,Tag0,unknown
1500042129770,0,-130,-2.8564453125E-5,40,40,56,1386108,859922,16762918,16753313,17547,77441,9251,5334,Tag0,unknown
1500042129780,0,-365,-8.02001953125E-5,40,40,56,1386108,859922,16762918,16753313,17547,77441,9251,5334,Tag0,unknown
1500042129781,0,-172,-3.7792968750000005E-5,40,40,56,1386108,859922,16762918,16753313,17547,77441,9251,5334,Tag0,unknown
1500042129782,0,-226,-4.9658203125E-5,40,40,56,1386108,859922,16762918,16753313,17547,77441,9251,5334,Tag0,unknown
1500042129782,0,-194,-4.2626953125E-5,40,40,56,1386108,859922,16762918,16753313,17547,77441,9251,5334,Tag0,unknown
1500042129783,0,-379,-8.32763671875E-5,40,40,56,1386108,859922,16762918,16753313,17547,77441,9251,5334,Tag0,unknown
1500042129784,0,-131,-2.87841796875E-5,40,40,56,1386108,859922,16762918,16753313,17547,77441,9251,5334,Tag0,unknown
1500042129784,0,-230,-5.0537109375E-5,40,40,56,1386108,859922,16762918,16753313,17547,77441,9251,5334,Tag0,unknown
1500042129785,0,-553,-1.215087890625E-4,40,40,56,1386108,859922,16762918,16753313,17547,77441,9251,5334,Tag0,unknown
1500042129786,0,-519,-1.140380859375E-4,40,40,56,1386108,859922,16762918,16753313,17547,77441,9251,5334,Tag0,unknown
1500042129786,0,-167,-3.6694335937500004E-5,40,40,56,1386108,859922,16762918,16753313,17547,77441,9251,5334,Tag0,unknown
1500042129787,0,-332,-7.294921875E-5,40,40,56,1386108,859922,16762918,16753313,17547,77441,9251,5334,Tag0,unknown
1500042129787,0,-330,-7.2509765625E-5,40,40,56,1386108,859922,16762918,16753313,17547,77441,9251,5334,Tag0,unknown
1500042129788,0,-131,-2.87841796875E-5,40,40,56,1386108,859922,16762918,16753313,17547,77441,9251,5334,Tag0,unknown
1500042129788,0,-150,-3.2958984375E-5,40,40,56,1386108,859922,16762918,16753313,17547,77441,9251,5334,Tag0,unknown
1500042129801,0,-354,-7.778320312500001E-5,40,40,56,1386108,859922,16762918,16753313,17547,77441,9251,5334,Tag0,unknown
1500042129815,0,-298,-6.5478515625E-5,40,40,56,1386108,859922,16762918,16753313,17547,77441,9251,5334,Tag0,unknown
1500042129816,0,-313,-6.87744140625E-5,40,40,56,1386108,859922,16762918,16753313,17547,77441,9251,5334,Tag0,unknown
1500042129817,0,-356,-7.822265625E-5,40,40,56,1386108,859922,16762918,16753313,17547,77441,9251,5334,Tag0,unknown
1500042129817,0,-345,-7.58056640625E-5,40,40,56,1386108,859922,16762918,16753313,17547,77441,9251,5334,Tag0,unknown
1500042129818,0,-295,-6.48193359375E-5,40,40,56,1386108,859922,16762918,16753313,17547,77441,9251,5334,Tag0,unknown
1500042129819,0,-268,-5.8886718750000006E-5,40,40,56,1386108,859922,16762918,16753313,17547,77441,9251,5334,Tag0,unknown
1500042129819,0,-328,-7.207031249999999E-5,40,40,56,1386108,859922,16762918,16753313,17547,77441,9251,5334,Tag0,unknown
1500042129820,0,-187,-4.10888671875E-5,40,40,56,1386108,859922,16762918,16753313,17547,77441,9251,5334,Tag0,unknown
1500042129820,0,-250,-5.4931640625E-5,40,40,56,1386108,859922,16762918,16753313,17547,77441,9251,5334,Tag0,unknown
1500042129821,0,-205,-4.50439453125E-5,40,40,56,1386108,859922,16762918,16753313,17547,77441,9251,5334,Tag0,unknown
1500042129822,0,-150,-3.2958984375E-5,40,40,56,1386108,859922,16762918,16753313,17547,77441,9251,5334,Tag0,unknown
1500042129823,0,-180,-3.955078125E-5,40,40,56,1386108,859922,16762918,16753313,17547,77441,9251,5334,Tag0,unknown
1500042129823,0,-520,-1.142578125E-4,40,40,56,1386108,859922,16762918,16753313,17547,77441,9251,5334,Tag0,unknown
1500042129823,0,-541,-1.1887207031250001E-4,40,40,56,1386108,859922,16762918,16753313,17547,77441,9251,5334,Tag0,unknown
1500042129823,0,-229,-5.03173828125E-5,40,40,56,1386108,859922,16762918,16753313,17547,77441,9251,5334,Tag0,unknown
1500042129824,0,-161,-3.53759765625E-5,40,40,56,1386108,859922,16762918,16753313,17547,77441,9251,5334,Tag0,unknown
1500042129824,0,-155,-3.40576171875E-5,40,40,56,1386108,859922,16762918,16753313,17547,77441,9251,5334,Tag0,unknown
1500042129825,0,-234,-5.1416015624999996E-5,40,40,56,1386108,859922,16762918,16753313,17547,77441,9251,5334,Tag0,unknown
1500042129826,0,-548,-1.2041015624999999E-4,40,40,56,1386108,859922,16762918,16753313,17547,77441,9251,5334,Tag0,unknown
1500042129841,0,-515,-1.131591796875E-4,40,40,56,1386108,859922,16762918,16753313,17547,77441,9251,5334,Tag0,unknown
1500042129849,0,-179,-3.93310546875E-5,40,40,56,1386108,859922,16762918,16753313,17547,77441,9251,5334,Tag0,unknown
1500042129850,0,-150,-3.2958984375E-5,40,40,56,1386108,859922,16762918,16753313,17547,77441,9251,5334,Tag0,unknown
1500042129851,0,-199,-4.3725585937499995E-5,40,40,56,1386108,859922,16762918,16753313,17547,77441,9251,5334,Tag0,unknown
1500042129852,0,-241,-5.29541015625E-5,40,40,56,1386108,859922,16762918,16753313,17547,77441,9251,5334,Tag0,unknown
1500042129853,0,-210,-4.6142578125E-5,40,40,56,1386108,859922,16762918,16753313,17547,77441,9251,5334,Tag0,unknown
1500042129853,0,-371,-8.151855468750001E-5,40,40,56,1386108,859922,16762918,16753313,17547,77441,9251,5334,Tag0,unknown
1500042129854,0,-290,-6.3720703125E-5,40,40,56,1386108,859922,16762918,16753313,17547,77441,9251,5334,Tag0,unknown
1500042129855,0,-314,-6.8994140625E-5,40,40,56,1386108,859922,16762918,16753313,17547,77441,9251,5334,Tag0,unknown
1500042129855,0,-135,-2.96630859375E-5,40,40,56,1386108,859922,16762918,16753313,17547,77441,9251,5334,Tag0,unknown
1500042129856,0,-155,-3.40576171875E-5,40,40,56,1386108,859922,16762918,16753313,17547,77441,9251,5334,Tag0,unknown
1500042129857,0,-343,-7.53662109375E-5,40,40,56,1386108,859922,16762918,16753313,17547,77441,9251,5334,Tag0,unknown
1500042129857,0,-281,-6.17431640625E-5,40,40,56,1386108,859922,16762918,16753313,17547,77441,9251,5334,Tag0,unknown
1500042129858,0,-305,-6.70166015625E-5,40,40,56,1386108,859922,16762918,16753313,17547,77441,9251,5334,Tag0,unknown
1500042129859,0,-371,-8.151855468750001E-5,40,40,56,1386108,859922,16762918,16753313,17547,77441,9251,5334,Tag0,unknown
1500042129859,0,-131,-2.87841796875E-5,40,40,56,1386108,859922,16762918,16753313,17547,77441,9251,5334,Tag0,unknown
1500042129860,0,-350,-7.6904296875E-5,40,40,56,1386108,859922,16762918,16753313,17547,77441,9251,5334,Tag0,unknown
1500042129860,0,-311,-6.833496093750001E-5,40,40,56,1386108,859922,16762918,16753313,17547,77441,9251,5334,Tag0,unknown
1500042129860,0,-343,-7.53662109375E-5,40,40,56,1386108,859922,16762918,16753313,17547,77441,9251,5334,Tag0,unknown
1500042129861,0,-164,-3.6035156249999995E-5,40,40,56,1386108,859922,16762918,16753313,17547,77441,9251,5334,Tag0,unknown
1500042129879,0,-196,-4.306640625E-5,40,40,56,1386108,859922,16762918,16753313,17547,77441,9251,5334,Tag0,unknown
1500042129900,0,-154,-3.3837890625E-5,40,40,56,1386108,859922,16762918,16753313,17547,77441,9251,5334,Tag0,unknown
1500042129900,0,-376,-8.261718750000001E-5,40,40,56,1386108,859922,16762918,16753313,17547,77441,9251,5334,Tag0,unknown
1500042129901,0,-158,-3.4716796875000005E-5,40,40,56,1386108,859922,16762918,16753313,17547,77441,9251,5334,Tag0,unknown
1500042129902,0,-244,-5.361328125E-5,40,40,56,1386108,859922,16762918,16753313,17547,77441,9251,5334,Tag0,unknown
1500042129903,0,-522,-1.14697265625E-4,40,40,56,1386108,859922,16762918,16753313,17547,77441,9251,5334,Tag0,unknown
1500042129903,0,-212,-4.6582031250000006E-5,40,40,56,1386108,859922,16762918,16753313,17547,77441,9251,5334,Tag0,unknown
1500042129904,0,-139,-3.0541992187500004E-5,40,40,56,1386108,859922,16762918,16753313,17547,77441,9251,5334,Tag0,unknown
1500042129905,0,-139,-3.0541992187500004E-5,40,40,56,1386108,859922,16762918,16753313,17547,77441,9251,5334,Tag0,unknown
1500042129906,0,-205,-4.50439453125E-5,40,40,56,1386108,859922,16762918,16753313,17547,77441,9251,5334,Tag0,unknown
1500042129917,0,-232,-5.09765625E-5,40,40,56,1386108,859922,16762918,16753313,17547,77441,9251,5334,Tag0,unknown
1500042129918,0,-183,-4.02099609375E-5,40,40,56,1386108,859922,16762918,16753313,17547,77441,9251,5334,Tag0,unknown
1500042129918,0,-364,-7.998046875E-5,40,40,56,1386108,859922,16762918,16753313,17547,77441,9251,5334,Tag0,unknown
1500042129919,0,-358,-7.8662109375E-5,40,40,56,1386108,859922,16762918,16753313,17547,77441,9251,5334,Tag0,unknown
1500042129920,0,-170,-3.7353515625E-5,40,40,56,1386108,859922,16762918,16753313,17547,77441,9251,5334,Tag0,unknown
1500042129921,0,-199,-4.3725585937499995E-5,40,40,56,1386108,859922,16762918,16753313,17547,77441,9251,5334,Tag0,unknown
1500042129922,0,-150,-3.2958984375E-5,40,40,56,1386108,859922,16762918,16753313,17547,77441,9251,5334,Tag0,unknown
1500042129923,0,-349,-7.668457031250001E-5,40,40,56,1386108,859922,16762918,16753313,17547,77441,9251,5334,Tag0,unknown
1500042129924,0,-339,-7.448730468750001E-5,40,40,56,1386108,859922,16762918,16753313,17547,77441,9251,5334,Tag0,unknown
1500042129925,0,-362,-7.954101562500001E-5,40,40,56,1386108,859922,16762918,16753313,17547,77441,9251,5334,Tag0,unknown
1500042129925,0,-360,-7.91015625E-5,40,40,56,1386108,859922,16762918,16753313,17547,77441,9251,5334,Tag0,unknown
1500042129925,0,-301,-6.613769531250001E-5,40,40,56,1386108,859922,16762918,16753313,17547,77441,9251,5334,Tag0,unknown
1500042129926,0,44,9.66796875E-6,40,40,56,1386108,859922,16762918,16753313,17547,77441,9251,5334,Tag0,unknown
1500042129926,0,93,2.04345703125E-5,40,40,56,1386108,859922,16762918,16753313,17547,77441,9251,5334,Tag0,unknown
1500042129927,0,58,1.2744140625E-5,40,40,56,1386108,859922,16762918,16753313,17547,77441,9251,5334,Tag0,unknown
1500042129928,0,7,1.5380859375E-6,40,40,56,1386108,859922,16762918,16753313,17547,77441,9251,5334,Tag0,unknown
1500042129928,0,18,3.955078125E-6,40,40,56,1386108,859922,16762918,16753313,17547,77441,9251,5334,Tag0,unknown
1500042129933,0,90,1.9775390625E-5,40,40,56,1386108,859922,16762918,16753313,17547,77441,9251,5334,Tag0,unknown
1500042129935,0,-108,-2.3730468750000002E-5,40,40,56,1386108,859922,16762918,16753313,17547,77441,9251,5334,Tag0,unknown
1500042129935,0,122,2.6806640625E-5,40,40,56,1386108,859922,16762918,16753313,17547,77441,9251,5334,Tag0,unknown
1500042129954,0,50,1.0986328125E-5,40,40,56,1386108,859922,16762918,16753313,17547,77441,9251,5334,Tag0,unknown
1500042129966,0,23,5.0537109375E-6,40,40,56,1386108,859922,16762918,16753313,17547,77441,9251,5334,Tag0,unknown
1500042129967,0,67,1.4721679687500002E-5,40,40,56,1386108,859922,16762918,16753313,17547,77441,9251,5334,Tag0,unknown
1500042129968,0,104,2.28515625E-5,40,40,56,1386108,859922,16762918,16753313,17547,77441,9251,5334,Tag0,unknown
1500042129968,0,73,1.6040039062500002E-5,40,40,56,1386108,859922,16762918,16753313,17547,77441,9251,5334,Tag0,unknown
1500042129969,0,10,2.197265625E-6,40,40,56,1386108,859922,16762918,16753313,17547,77441,9251,5334,Tag0,unknown
1500042129969,0,18,3.955078125E-6,40,40,56,1386108,859922,16762918,16753313,17547,77441,9251,5334,Tag0,unknown
1500042129970,0,88,1.93359375E-5,40,40,56,1386108,859922,16762918,16753313,17547,77441,9251,5334,Tag0,unknown
1500042129971,0,-108,-2.3730468750000002E-5,40,40,56,1386108,859922,16762918,16753313,17547,77441,9251,5334,Tag0,unknown
1500042129971,0,122,2.6806640625E-5,40,40,56,1386108,859922,16762918,16753313,17547,77441,9251,5334,Tag0,unknown
1500042129972,0,34,7.4707031250000005E-6,40,40,56,1386108,859922,16762918,16753313,17547,77441,9251,5334,Tag0,unknown
1500042129973,0,-275,-6.04248046875E-5,40,40,56,1386108,859922,16762918,16753313,17547,77441,9251,5334,Tag0,unknown
1500042129973,0,35,7.6904296875E-6,40,40,56,1386108,859922,16762918,16753313,17547,77441,9251,5334,Tag0,unknown
1500042129973,0,-121,-2.6586914062500003E-5,40,40,56,1386108,859922,16762918,16753313,17547,77441,9251,5334,Tag0,unknown
1500042129973,0,-80,-1.7578125E-5,40,40,56,1386108,859922,16762918,16753313,17547,77441,9251,5334,Tag0,unknown
1500042129974,0,122,2.6806640625E-5,40,40,56,1386108,859922,16762918,16753313,17547,77441,9251,5334,Tag0,unknown
1500042129974,0,90,1.9775390625E-5,40,40,56,1386108,859922,16762918,16753313,17547,77441,9251,5334,Tag0,unknown
1500042129975,0,-125,-2.74658203125E-5,40,40,56,1386108,859922,16762918,16753313,17547,77441,9251,5334,Tag0,unknown
1500042129975,0,-40,-8.7890625E-6,40,40,56,1386108,859922,16762918,16753313,17547,77441,9251,5334,Tag0,unknown
1500042129975,0,257,5.64697265625E-5,40,40,56,1386108,859922,16762918,16753313,17547,77441,9251,5334,Tag0,unknown
1500042129976,0,-71,-1.56005859375E-5,40,40,56,1386108,859922,16762918,16753313,17547,77441,9251,5334,Tag0,unknown
1500042129976,0,72,1.58203125E-5,40,40,56,1386108,859922,16762918,16753313,17547,77441,9251,5334,Tag0,unknown
1500042129976,0,-264,-5.80078125E-5,40,40,56,1386108,859922,16762918,16753313,17547,77441,9251,5334,Tag0,unknown
1500042129976,0,-289,-6.35009765625E-5,40,40,56,1386108,859922,16762918,16753313,17547,77441,9251,5334,Tag0,unknown
1500042129977,0,-308,-6.767578125E-5,40,40,56,1386108,859922,16762918,16753313,17547,77441,9251,5334,Tag0,unknown
1500042129977,0,-373,-8.19580078125E-5,40,40,56,1386108,859922,16762918,16753313,17547,77441,9251,5334,Tag0,unknown
1500042129977,0,-161,-3.53759765625E-5,40,40,56,1386108,859922,16762918,16753313,17547,77441,9251,5334,Tag0,unknown
1500042129978,0,-375,-8.23974609375E-5,40,40,56,1386108,859922,16762918,16753313,17547,77441,9251,5334,Tag0,unknown
1500042129978,0,-283,-6.218261718750001E-5,40,40,56,1386108,859922,16762918,16753313,17547,77441,9251,5334,Tag0,unknown
1500042129978,0,36,7.91015625E-6,40,40,56,1386108,859922,16762918,16753313,17547,77441,9251,5334,Tag0,unknown
1500042129997,0,-266,-5.8447265625E-5,40,40,56,1386108,859922,16762918,16753313,17547,77441,9251,5334,Tag0,unknown
1500042130016,0,-327,-7.18505859375E-5,40,40,56,1386108,859922,16762918,16753313,17547,77441,9251,5334,Tag0,unknown
1500042130016,0,-308,-6.767578125E-5,40,40,56,1386108,859922,16762918,16753313,17547,77441,9251,5334,Tag0,unknown
1500042130017,0,23,5.0537109375E-6,40,40,56,1386108,859922,16762918,16753313,17547,77441,9251,5334,Tag0,unknown
1500042130017,0,82,1.8017578124999998E-5,40,40,56,1386108,859922,16762918,16753313,17547,77441,9251,5334,Tag0,unknown
1500042130018,0,73,1.6040039062500002E-5,40,40,56,1386108,859922,16762918,16753313,17547,77441,9251,5334,Tag0,unknown
1500042130018,0,36,7.91015625E-6,40,40,56,1386108,859922,16762918,16753313,17547,77441,9251,5334,Tag0,unknown
1500042130019,0,59,1.29638671875E-5,40,40,56,1386108,859922,16762918,16753313,17547,77441,9251,5334,Tag0,unknown
1500042130019,0,-117,-2.5708007812499998E-5,40,40,56,1386108,859922,16762918,16753313,17547,77441,9251,5334,Tag0,unknown
1500042130020,0,-47,-1.0327148437500001E-5,40,40,56,1386108,859922,16762918,16753313,17547,77441,9251,5334,Tag0,unknown
1500042130020,0,-67,-1.4721679687500002E-5,40,40,56,1386108,859922,16762918,16753313,17547,77441,9251,5334,Tag0,unknown
1500042130021,0,-124,-2.724609375E-5,40,40,56,1386108,859922,16762918,16753313,17547,77441,9251,5334,Tag0,unknown
1500042130021,0,-120,-2.63671875E-5,40,40,56,1386108,859922,16762918,16753313,17547,77441,9251,5334,Tag0,unknown
1500042130021,0,-43,-9.448242187500001E-6,40,40,56,1386108,859922,16762918,16753313,17547,77441,9251,5334,Tag0,unknown
1500042130021,0,278,6.108398437500001E-5,40,40,56,1386108,859922,16762918,16753313,17547,77441,9251,5334,Tag0,unknown
1500042130022,0,263,5.7788085937500005E-5,40,40,56,1386108,859922,16762918,16753313,17547,77441,9251,5334,Tag0,unknown
1500042130023,0,-60,-1.318359375E-5,40,40,56,1386108,859922,16762918,16753313,17547,77441,9251,5334,Tag0,unknown
1500042130024,0,-71,-1.56005859375E-5,40,40,56,1386108,859922,16762918,16753313,17547,77441,9251,5334,Tag0,unknown
1500042130025,0,-10,-2.197265625E-6,40,40,56,1386108,859922,16762918,16753313,17547,77441,9251,5334,Tag0,unknown
1500042130026,0,296,6.50390625E-5,40,40,56,1386108,859922,16762918,16753313,17547,77441,9251,5334,Tag0,unknown
1500042130037,0,277,6.0864257812500005E-5,40,40,56,1386108,859922,16762918,16753313,17547,77441,9251,5334,Tag0,unknown
1500042130039,0,-55,-1.20849609375E-5,40,40,56,1386108,859922,16762918,16753313,17547,77441,9251,5334,Tag0,unknown
1500042130039,0,-89,-1.95556640625E-5,40,40,56,1386108,859922,16762918,16753313,17547,77441,9251,5334,Tag0,unknown
1500042130040,0,-40,-8.7890625E-6,40,40,56,1386108,859922,16762918,16753313,17547,77441,9251,5334,Tag0,unknown
1500042130041,0,280,6.15234375E-5,40,40,56,1386108,859922,16762918,16753313,17547,77441,9251,5334,Tag0,unknown
1500042130051,0,268,5.8886718750000006E-5,40,40,56,1386108,859922,16762918,16753313,17547,77441,9251,5334,Tag0,unknown
1500042130053,0,-71,-1.56005859375E-5,40,40,56,1386108,859922,16762918,16753313,17547,77441,9251,5334,Tag0,unknown
1500042130053,0,-103,-2.26318359375E-5,40,40,56,1386108,859922,16762918,16753313,17547,77441,9251,5334,Tag0,unknown
1500042130054,0,-37,-8.1298828125E-6,40,40,56,1386108,859922,16762918,16753313,17547,77441,9251,5334,Tag0,unknown
1500042130055,0,313,6.87744140625E-5,40,40,56,1386108,859922,16762918,16753313,17547,77441,9251,5334,Tag0,unknown
1500042130056,0,344,7.558593750000001E-5,40,40,56,1386108,859922,16762918,16753313,17547,77441,9251,5334,Tag0,unknown
1500042130057,0,269,5.9106445312499996E-5,40,40,56,1386108,859922,16762918,16753313,17547,77441,9251,5334,Tag0,unknown
1500042130057,0,-67,-1.4721679687500002E-5,40,40,56,1386108,859922,16762918,16753313,17547,77441,9251,5334,Tag0,unknown
1500042130058,0,-56,-1.23046875E-5,40,40,56,1386108,859922,16762918,16753313,17547,77441,9251,5334,Tag0,unknown
1500042130059,0,290,6.3720703125E-5,40,40,56,1386108,859922,16762918,16753313,17547,77441,9251,5334,Tag0,unknown
1500042130059,0,357,7.844238281250001E-5,40,40,56,1386108,859922,16762918,16753313,17547,77441,9251,5334,Tag0,unknown
1500042130060,0,333,7.316894531249999E-5,40,40,56,1386108,859922,16762918,16753313,17547,77441,9251,5334,Tag0,unknown
1500042130060,0,279,6.13037109375E-5,40,40,56,1386108,859922,16762918,16753313,17547,77441,9251,5334,Tag0,unknown
1500042130061,0,273,5.998535156250001E-5,40,40,56,1386108,859922,16762918,16753313,17547,77441,9251,5334,Tag0,unknown
1500042130061,0,317,6.96533203125E-5,40,40,56,1386108,859922,16762918,16753313,17547,77441,9251,5334,Tag0,unknown
1500042130074,0,370,8.1298828125E-5,40,40,56,1386108,859922,16762918,16753313,17547,77441,9251,5334,Tag0,unknown
1500042130085,0,338,7.426757812499999E-5,40,40,56,1386108,859922,16762918,16753313,17547,77441,9251,5334,Tag0,unknown
1500042130086,0,268,5.8886718750000006E-5,40,40,56,1386108,859922,16762918,16753313,17547,77441,9251,5334,Tag0,unknown
1500042130086,0,258,5.6689453125000004E-5,40,40,56,1386108,859922,16762918,16753313,17547,77441,9251,5334,Tag0,unknown
1500042130087,0,298,6.5478515625E-5,40,40,56,1386108,859922,16762918,16753313,17547,77441,9251,5334,Tag0,unknown
1500042130088,0,325,7.14111328125E-5,40,40,56,1386108,859922,16762918,16753313,17547,77441,9251,5334,Tag0,unknown
1500042130089,0,269,5.9106445312499996E-5,40,40,56,1386108,859922,16762918,16753313,17547,77441,9251,5334,Tag0,unknown
1500042130089,0,-73,-1.6040039062500002E-5,40,40,56,1386108,859922,16762918,16753313,17547,77441,9251,5334,Tag0,unknown
1500042130090,0,-84,-1.8457031250000004E-5,40,40,56,1386108,859922,16762918,16753313,17547,77441,9251,5334,Tag0,unknown
1500042130091,0,-9,-1.9775390625E-6,40,40,56,1386108,859922,16762918,16753313,17547,77441,9251,5334,Tag0,unknown
1500042130092,0,336,7.382812500000001E-5,40,40,56,1386108,859922,16762918,16753313,17547,77441,9251,5334,Tag0,unknown
1500042130092,0,349,7.668457031250001E-5,40,40,56,1386108,859922,16762918,16753313,17547,77441,9251,5334,Tag0,unknown
1500042130093,0,295,6.48193359375E-5,40,40,56,1386108,859922,16762918,16753313,17547,77441,9251,5334,Tag0,unknown
1500042130093,0,279,6.13037109375E-5,40,40,56,1386108,859922,16762918,16753313,17547,77441,9251,5334,Tag0,unknown
1500042130094,0,347,7.62451171875E-5,40,40,56,1386108,859922,16762918,16753313,17547,77441,9251,5334,Tag0,unknown
1500042130094,0,172,3.7792968750000005E-5,40,40,56,1386108,859922,16762918,16753313,17547,77441,9251,5334,Tag0,unknown
1500042130095,0,198,4.3505859375000006E-5,40,40,56,1386108,859922,16762918,16753313,17547,77441,9251,5334,Tag0,unknown
1500042130095,0,155,3.40576171875E-5,40,40,56,1386108,859922,16762918,16753313,17547,77441,9251,5334,Tag0,unknown
1500042130096,0,376,8.261718750000001E-5,40,40,56,1386108,859922,16762918,16753313,17547,77441,9251,5334,Tag0,unknown
1500042130096,0,380,8.349609375E-5,40,40,56,1386108,859922,16762918,16753313,17547,77441,9251,5334,Tag0,unknown
1500042130114,0,146,3.2080078125000004E-5,40,40,56,1386108,859922,16762918,16753313,17547,77441,9251,5334,Tag0,unknown
1500042130135,0,131,2.87841796875E-5,40,40,56,1386108,859922,16762918,16753313,17547,77441,9251,5334,Tag0,unknown
1500042130136,0,312,6.85546875E-5,40,40,56,1386108,859922,16762918,16753313,17547,77441,9251,5334,Tag0,unknown
1500042130136,0,-14,-3.076171875E-6,40,40,56,1386108,859922,16762918,16753313,17547,77441,9251,5334,Tag0,unknown
1500042130137,0,-22,-4.833984375E-6,40,40,56,1386108,859922,16762918,16753313,17547,77441,9251,5334,Tag0,unknown
1500042130138,0,272,5.9765625000000004E-5,40,40,56,1386108,859922,16762918,16753313,17547,77441,9251,5334,Tag0,unknown
1500042130138,0,260,5.712890625E-5,40,40,56,1386108,859922,16762918,16753313,17547,77441,9251,5334,Tag0,unknown
1500042130139,0,-86,-1.8896484375000003E-5,40,40,56,1386108,859922,16762918,16753313,17547,77441,9251,5334,Tag0,unknown
1500042130140,0,103,2.26318359375E-5,40,40,56,1386108,859922,16762918,16753313,17547,77441,9251,5334,Tag0,unknown
1500042130141,0,-124,-2.724609375E-5,40,40,56,1386108,859922,16762918,16753313,17547,77441,9251,5334,Tag0,unknown
1500042130142,0,-48,-1.0546875E-5,40,40,56,1386108,859922,16762918,16753313,17547,77441,9251,5334,Tag0,unknown
1500042130143,0,-3,-6.591796875E-7,40,40,56,1386108,859922,16762918,16753313,17547,77441,9251,5334,Tag0,unknown
1500042130143,0,-42,-9.228515625000002E-6,40,40,56,1386108,859922,16762918,16753313,17547,77441,9251,5334,Tag0,unknown
1500042130144,0,-95,-2.08740234375E-5,40,40,56,1386108,859922,16762918,16753313,17547,77441,9251,5334,Tag0,unknown
1500042130144,0,-104,-2.28515625E-5,40,40,56,1386108,859922,16762918,16753313,17547,77441,9251,5334,Tag0,unknown
1500042130145,0,-68,-1.4941406250000001E-5,40,40,56,1386108,859922,16762918,16753313,17547,77441,9251,5334,Tag0,unknown
1500042130145,0,-41,-9.008789062499999E-6,40,40,56,1386108,859922,16762918,16753313,17547,77441,9251,5334,Tag0,unknown
1500042130146,0,-76,-1.669921875E-5,40,40,56,1386108,859922,16762918,16753313,17547,77441,9251,5334,Tag0,unknown
1500042130147,0,122,2.6806640625E-5,40,40,56,1386108,859922,16762918,16753313,17547,77441,9251,5334,Tag0,unknown
1500042130148,0,122,2.6806640625E-5,40,40,56,1386108,859922,16762918,16753313,17547,77441,9251,5334,Tag0,unknown
1500042130153,0,-103,-2.26318359375E-5,40,40,56,1386108,859922,16762918,16753313,17547,77441,9251,5334,Tag0,unknown
1500042130154,0,-90,-1.9775390625E-5,40,40,56,1386108,859922,16762918,16753313,17547,77441,9251,5334,Tag0,unknown
1500042130155,0,92,2.021484375E-5,40,40,56,1386108,859922,16762918,16753313,17547,77441,9251,5334,Tag0,unknown
1500042130156,0,-283,-6.218261718750001E-5,40,40,56,1386108,859922,16762918,16753313,17547,77441,9251,5334,Tag0,unknown
1500042130156,0,-349,-7.668457031250001E-5,40,40,56,1386108,859922,16762918,16753313,17547,77441,9251,5334,Tag0,unknown
1500042130157,0,-325,-7.14111328125E-5,40,40,56,1386108,859922,16762918,16753313,17547,77441,9251,5334,Tag0,unknown
1500042130158,0,-283,-6.218261718750001E-5,40,40,56,1386108,859922,16762918,16753313,17547,77441,9251,5334,Tag0,unknown
1500042130159,0,-321,-7.053222656250001E-5,40,40,56,1386108,859922,16762918,16753313,17547,77441,9251,5334,Tag0,unknown
1500042130160,0,-147,-3.22998046875E-5,40,40,56,1386108,859922,16762918,16753313,17547,77441,9251,5334,Tag0,unknown
1500042130160,0,-171,-3.75732421875E-5,40,40,56,1386108,859922,16762918,16753313,17547,77441,9251,5334,Tag0,unknown
1500042130169,0,-382,-8.3935546875E-5,40,40,56,1386108,859922,16762918,16753313,17547,77441,9251,5334,Tag0,unknown
1500042130170,0,-310,-6.8115234375E-5,40,40,56,1386108,859922,16762918,16753313,17547,77441,9251,5334,Tag0,unknown
1500042130170,0,-289,-6.35009765625E-5,40,40,56,1386108,859922,16762918,16753313,17547,77441,9251,5334,Tag0,unknown
1500042130171,0,-345,-7.58056640625E-5,40,40,56,1386108,859922,16762918,16753313,17547,77441,9251,5334,Tag0,unknown
1500042130171,0,-132,-2.900390625E-5,40,40,56,1386108,859922,16762918,16753313,17547,77441,9251,5334,Tag0,unknown
1500042130172,0,-359,-7.88818359375E-5,40,40,56,1386108,859922,16762918,16753313,17547,77441,9251,5334,Tag0,unknown
1500042130173,0,-302,-6.6357421875E-5,40,40,56,1386108,859922,16762918,16753313,17547,77441,9251,5334,Tag0,unknown
1500042130174,0,-300,-6.591796875E-5,40,40,56,1386108,859922,16762918,16753313,17547,77441,9251,5334,Tag0,unknown
1500042130175,0,-370,-8.1298828125E-5,40,40,56,1386108,859922,16762918,16753313,17547,77441,9251,5334,Tag0,unknown
1500042130176,0,-170,-3.7353515625E-5,40,40,56,1386108,859922,16762918,16753313,17547,77441,9251,5334,Tag0,unknown
1500042130192,0,-164,-3.6035156249999995E-5,40,40,56,1386108,859922,16762918,16753313,17547,77441,9251,5334,Tag0,unknown
1500042130203,0,-131,-2.87841796875E-5,40,40,56,1386108,859922,16762918,16753313,17547,77441,9251,5334,Tag0,unknown
1500042130203,0,-377,-8.28369140625E-5,40,40,56,1386108,859922,16762918,16753313,17547,77441,9251,5334,Tag0,unknown
1500042130204,0,-168,-3.691406250000001E-5,40,40,56,1386108,859922,16762918,16753313,17547,77441,9251,5334,Tag0,unknown
1500042130205,0,-203,-4.460449218750001E-5,40,40,56,1386108,859922,16762918,16753313,17547,77441,9251,5334,Tag0,unknown
1500042130205,0,-168,-3.691406250000001E-5,40,40,56,1386108,859922,16762918,16753313,17547,77441,9251,5334,Tag0,unknown
1500042130206,0,-330,-7.2509765625E-5,40,40,56,1386108,859922,16762918,16753313,17547,77441,9251,5334,Tag0,unknown
1500042130206,0,-265,-5.82275390625E-5,40,40,56,1386108,859922,16762918,16753313,17547,77441,9251,5334,Tag0,unknown
1500042130206,0,-296,-6.50390625E-5,40,40,56,1386108,859922,16762918,16753313,17547,77441,9251,5334,Tag0,unknown
1500042130206,0,-347,-7.62451171875E-5,40,40,56,1386108,859922,16762918,16753313,17547,77441,9251,5334,Tag0,unknown
1500042130207,0,-324,-7.119140625E-5,40,40,56,1386108,859922,16762918,16753313,17547,77441,9251,5334,Tag0,unknown
1500042130207,0,2,4.39453125E-7,40,40,56,1386108,859922,16762918,16753313,17547,77441,9251,5334,Tag0,unknown
1500042130208,0,54,1.1865234375000001E-5,40,40,46,1386108,859922,16762918,16753313,17547,77441,9251,5334,Tag0,unknown
1500042130208,0,12,2.63671875E-6,40,40,46,1386108,859922,16762918,16753313,17547,77441,9251,5334,Tag0,unknown
1500042130209,0,-329,-7.229003906250001E-5,40,40,46,1386108,859922,16762918,16753313,17547,77441,9251,5334,Tag0,unknown
1500042130210,0,-355,-7.80029296875E-5,40,40,46,1386108,859922,16762918,16753313,17547,77441,9251,5334,Tag0,unknown
1500042130211,0,-295,-6.48193359375E-5,40,40,46,1386108,859922,16762918,16753313,17547,77441,9251,5334,Tag0,unknown
1500042130211,0,18,3.955078125E-6,40,40,46,1386108,859922,16762918,16753313,17547,77441,9251,5334,Tag0,unknown
1500042130212,0,5,1.0986328125E-6,40,40,46,1386108,859922,16762918,16753313,17547,77441,9251,5334,Tag0,unknown
1500042130213,0,-307,-6.74560546875E-5,40,40,46,1386108,859922,16762918,16753313,17547,77441,9251,5334,Tag0,unknown
1500042130229,0,-313,-6.87744140625E-5,40,40,46,1386108,859922,16762918,16753313,17547,77441,9251,5334,Tag0,unknown
1500042130235,0,-276,-6.064453125E-5,40,40,46,1386108,859922,16762918,16753313,17547,77441,9251,5334,Tag0,unknown
1500042130236,0,16,3.515625E-6,40,40,46,1386108,859922,16762918,16753313,17547,77441,9251,5334,Tag0,unknown
1500042130237,0,-268,-5.8886718750000006E-5,40,40,46,1386108,859922,16762918,16753313,17547,77441,9251,5334,Tag0,unknown
1500042130237,0,-362,-7.954101562500001E-5,40,40,46,1386108,859922,16762918,16753313,17547,77441,9251,5334,Tag0,unknown
1500042130238,0,-169,-3.7133789062499996E-5,40,40,46,1386108,859922,16762918,16753313,17547,77441,9251,5334,Tag0,unknown
1500042130238,0,-157,-3.44970703125E-5,40,40,46,1386108,859922,16762918,16753313,17547,77441,9251,5334,Tag0,unknown
1500042130239,0,-130,-2.8564453125E-5,40,40,46,1386108,859922,16762918,16753313,17547,77441,9251,5334,Tag0,unknown
1500042130240,0,-167,-3.6694335937500004E-5,40,40,46,1386108,859922,16762918,16753313,17547,77441,9251,5334,Tag0,unknown
1500042130240,0,-519,-1.140380859375E-4,40,40,46,1386108,859922,16762918,16753313,17547,77441,9251,5334,Tag0,unknown
1500042130251,0,-570,-1.25244140625E-4,40,40,46,1386108,859922,16762918,16753313,17547,77441,9251,5334,Tag0,unknown
1500042130251,0,-553,-1.215087890625E-4,40,40,46,1386108,859922,16762918,16753313,17547,77441,9251,5334,Tag0,unknown
1500042130252,0,-248,-5.44921875E-5,40,40,46,1386108,859922,16762918,16753313,17547,77441,9251,5334,Tag0,unknown
1500042130252,0,-231,-5.07568359375E-5,40,40,46,1386108,859922,16762918,16753313,17547,77441,9251,5334,Tag0,unknown
1500042130252,0,-555,-1.219482421875E-4,40,40,46,1386108,859922,16762918,16753313,17547,77441,9251,5334,Tag0,unknown
1500042130252,0,-627,-1.377685546875E-4,40,40,46,1386108,859922,16762918,16753313,17547,77441,9251,5334,Tag0,unknown
1500042130253,0,-632,-1.3886718750000002E-4,40,40,46,1386108,859922,16762918,16753313,17547,77441,9251,5334,Tag0,unknown
1500042130253,0,-596,-1.3095703125E-4,40,40,46,1386108,859922,16762918,16753313,17547,77441,9251,5334,Tag0,unknown
1500042130253,0,-586,-1.28759765625E-4,40,40,46,1386108,859922,16762918,16753313,17547,77441,9251,5334,Tag0,unknown
1500042130253,0,-616,-1.353515625E-4,40,40,46,1386108,859922,16762918,16753313,17547,77441,9251,5334,Tag0,unknown
1500042130269,0,-606,-1.33154296875E-4,40,40,46,1386108,859922,16762918,16753313,17547,77441,9251,5334,Tag0,unknown
1500042130285,0,-533,-1.171142578125E-4,40,40,46,1386108,859922,16762918,16753313,17547,77441,9251,5334,Tag0,unknown
1500042130285,0,-189,-4.15283203125E-5,40,40,46,1386108,859922,16762918,16753313,17547,77441,9251,5334,Tag0,unknown
1500042130286,0,-135,-2.96630859375E-5,40,40,46,1386108,859922,16762918,16753313,17547,77441,9251,5334,Tag0,unknown
1500042130286,0,-156,-3.427734375E-5,40,40,46,1386108,859922,16762918,16753313,17547,77441,9251,5334,Tag0,unknown
1500042130286,0,-212,-4.6582031250000006E-5,40,40,46,1386108,859922,16762918,16753313,17547,77441,9251,5334,Tag0,unknown
1500042130286,0,-199,-4.3725585937499995E-5,40,40,46,1386108,859922,16762918,16753313,17547,77441,9251,5334,Tag0,unknown
1500042130287,0,-378,-8.3056640625E-5,40,40,46,1386108,859922,16762918,16753313,17547,77441,9251,5334,Tag0,unknown
1500042130287,0,-330,-7.2509765625E-5,40,40,46,1386108,859922,16762918,16753313,17547,77441,9251,5334,Tag0,unknown
1500042130287,0,-361,-7.93212890625E-5,40,40,46,1386108,859922,16762918,16753313,17547,77441,9251,5334,Tag0,unknown
1500042130287,0,-154,-3.3837890625E-5,40,40,46,1386108,859922,16762918,16753313,17547,77441,9251,5334,Tag0,unknown
1500042130288,0,-131,-2.87841796875E-5,40,40,46,1386108,859922,16762918,16753313,17547,77441,9251,5334,Tag0,unknown
1500042130288,0,-297,-6.525878906250001E-5,40,40,46,1386108,859922,16762918,16753313,17547,77441,9251,5334,Tag0,unknown
1500042130288,0,36,7.91015625E-6,40,40,46,1386108,859922,16762918,16753313,17547,77441,9251,5334,Tag0,unknown
1500042130289,0,20,4.39453125E-6,40,40,46,1386108,859922,16762918,16753313,17547,77441,9251,5334,Tag0,unknown
1500042130289,0,-297,-6.525878906250001E-5,40,40,46,1386108,859922,16762918,16753313,17547,77441,9251,5334,Tag0,unknown
1500042130289,0,-299,-6.56982421875E-5,40,40,46,1386108,859922,16762918,16753313,17547,77441,9251,5334,Tag0,unknown
1500042130289,0,28,6.15234375E-6,40,40,46,1386108,859922,16762918,16753313,17547,77441,9251,5334,Tag0,unknown
1500042130290,0,102,2.2412109374999998E-5,40,40,46,1386108,859922,16762918,16753313,17547,77441,9251,5334,Tag0,unknown
1500042130290,0,114,2.5048828125000003E-5,40,40,46,1386108,859922,16762918,16753313,17547,77441,9251,5334,Tag0,unknown
1500042130311,0,65,1.42822265625E-5,40,40,46,1386108,859922,16762918,16753313,17547,77441,9251,5334,Tag0,unknown
1500042130311,0,17,3.7353515625000003E-6,40,40,46,1386108,859922,16762918,16753313,17547,77441,9251,5334,Tag0,unknown
1500042130324,0,8,1.7578125E-6,40,40,46,1386108,859922,16762918,16753313,17547,77441,9251,5334,Tag0,unknown
1500042130325,0,50,1.0986328125E-5,40,40,46,1386108,859922,16762918,16753313,17547,77441,9251,5334,Tag0,unknown
1500042130326,0,52,1.142578125E-5,40,40,46,1386108,859922,16762918,16753313,17547,77441,9251,5334,Tag0,unknown
1500042130327,0,-293,-6.43798828125E-5,40,40,46,1386108,859922,16762918,16753313,17547,77441,9251,5334,Tag0,unknown
1500042130327,0,-380,-8.349609375E-5,40,40,46,1386108,859922,16762918,16753313,17547,77441,9251,5334,Tag0,unknown
1500042130329,0,-375,-8.23974609375E-5,40,40,46,1386108,859922,16762918,16753313,17547,77441,9251,5334,Tag0,unknown
1500042130329,0,-324,-7.119140625E-5,40,40,46,1386108,859922,16762918,16753313,17547,77441,9251,5334,Tag0,unknown
1500042130330,0,-324,-7.119140625E-5,40,40,46,1386108,859922,16762918,16753313,17547,77441,9251,5334,Tag0,unknown
1500042130331,0,-138,-3.0322265625E-5,40,40,46,1386108,859922,16762918,16753313,17547,77441,9251,5334,Tag0,unknown
1500042130331,0,-197,-4.32861328125E-5,40,40,46,1386108,859922,16762918,16753313,17547,77441,9251,5334,Tag0,unknown
1500042130332,0,-201,-4.41650390625E-5,40,40,46,1386108,859922,16762918,16753313,17547,77441,9251,5334,Tag0,unknown
1500042130333,0,-171,-3.75732421875E-5,40,40,46,1386108,859922,16762918,16753313,17547,77441,9251,5334,Tag0,unknown
1500042130334,0,-169,-3.7133789062499996E-5,40,40,46,1386108,859922,16762918,16753313,17547,77441,9251,5334,Tag0,unknown
1500042130335,0,-237,-5.2075195312500004E-5,40,40,46,1386108,859922,16762918,16753313,17547,77441,9251,5334,Tag0,unknown
1500042130335,0,-557,-1.223876953125E-4,40,40,46,1386108,859922,16762918,16753313,17547,77441,9251,5334,Tag0,unknown
1500042130336,0,-548,-1.2041015624999999E-4,40,40,46,1386108,859922,16762918,16753313,17547,77441,9251,5334,Tag0,unknown
1500042130336,0,-216,-4.7460937500000004E-5,40,40,46,1386108,859922,16762918,16753313,17547,77441,9251,5334,Tag0,unknown
1500042130337,0,-167,-3.6694335937500004E-5,40,40,46,1386108,859922,16762918,16753313,17547,77441,9251,5334,Tag0,unknown
1500042130347,0,-195,-4.28466796875E-5,40,40,46,1386108,859922,16762918,16753313,17547,77441,9251,5334,Tag0,unknown
1500042130356,0,-235,-5.16357421875E-5,40,40,46,1386108,859922,16762918,16753313,17547,77441,9251,5334,Tag0,unknown
1500042130357,0,-214,-4.7021484375E-5,40,40,46,1386108,859922,16762918,16753313,17547,77441,9251,5334,Tag0,unknown
1500042130357,0,-140,-3.076171875E-5,40,40,46,1386108,859922,16762918,16753313,17547,77441,9251,5334,Tag0,unknown
1500042130358,0,-323,-7.09716796875E-5,40,40,46,1386108,859922,16762918,16753313,17547,77441,9251,5334,Tag0,unknown
1500042130359,0,-323,-7.09716796875E-5,40,40,46,1386108,859922,16762918,16753313,17547,77441,9251,5334,Tag0,unknown
1500042130359,0,-373,-8.19580078125E-5,40,40,46,1386108,859922,16762918,16753313,17547,77441,9251,5334,Tag0,unknown
1500042130360,0,-364,-7.998046875E-5,40,40,46,1386108,859922,16762918,16753313,17547,77441,9251,5334,Tag0,unknown
1500042130361,0,-276,-6.064453125E-5,40,40,46,1386108,859922,16762918,16753313,17547,77441,9251,5334,Tag0,unknown
1500042130362,0,48,1.0546875E-5,40,40,46,1386108,859922,16762918,16753313,17547,77441,9251,5334,Tag0,unknown
1500042130363,0,21,4.614257812500001E-6,40,40,46,1386108,859922,16762918,16753313,17547,77441,9251,5334,Tag0,unknown
1500042130363,0,-297,-6.525878906250001E-5,40,40,46,1386108,859922,16762918,16753313,17547,77441,9251,5334,Tag0,unknown
1500042130364,0,-299,-6.56982421875E-5,40,40,46,1386108,859922,16762918,16753313,17547,77441,9251,5334,Tag0,unknown
1500042130364,0,11,2.4169921875E-6,40,40,46,1386108,859922,16762918,16753313,17547,77441,9251,5334,Tag0,unknown
1500042130365,0,75,1.64794921875E-5,40,40,46,1386108,859922,16762918,16753313,17547,77441,9251,5334,Tag0,unknown
1500042130365,0,64,1.40625E-5,40,40,46,1386108,859922,16762918,16753313,17547,77441,9251,5334,Tag0,unknown
1500042130366,0,-266,-5.8447265625E-5,40,40,46,1386108,859922,16762918,16753313,17547,77441,9251,5334,Tag0,unknown
1500042130366,0,-307,-6.74560546875E-5,40,40,46,1386108,859922,16762918,16753313,17547,77441,9251,5334,Tag0,unknown
1500042130367,0,-264,-5.80078125E-5,40,40,46,1386108,859922,16762918,16753313,17547,77441,9251,5334,Tag0,unknown
1500042130368,0,69,1.51611328125E-5,40,40,46,1386108,859922,16762918,16753313,17547,77441,9251,5334,Tag0,unknown
1500042130385,0,101,2.2192382812500002E-5,40,40,46,1386108,859922,16762918,16753313,17547,77441,9251,5334,Tag0,unknown
1500042130404,0,80,1.7578125E-5,40,40,46,1386108,859922,16762918,16753313,17547,77441,9251,5334,Tag0,unknown
1500042130404,0,83,1.82373046875E-5,40,40,46,1386108,859922,16762918,16753313,17547,77441,9251,5334,Tag0,unknown
1500042130405,0,117,2.5708007812499998E-5,40,40,46,1386108,859922,16762918,16753313,17547,77441,9251,5334,Tag0,unknown
1500042130406,0,-119,-2.6147460937500004E-5,40,40,46,1386108,859922,16762918,16753313,17547,77441,9251,5334,Tag0,unknown
1500042130406,0,107,2.35107421875E-5,40,40,46,1386108,859922,16762918,16753313,17547,77441,9251,5334,Tag0,unknown
1500042130407,0,36,7.91015625E-6,40,40,46,1386108,859922,16762918,16753313,17547,77441,9251,5334,Tag0,unknown
1500042130407,0,-258,-5.6689453125000004E-5,40,40,46,1386108,859922,16762918,16753313,17547,77441,9251,5334,Tag0,unknown
1500042130408,0,24,5.2734375E-6,40,40,46,1386108,859922,16762918,16753313,17547,77441,9251,5334,Tag0,unknown
1500042130409,0,88,1.93359375E-5,40,40,46,1386108,859922,16762918,16753313,17547,77441,9251,5334,Tag0,unknown
1500042130409,0,112,2.4609375E-5,40,40,46,1386108,859922,16762918,16753313,17547,77441,9251,5334,Tag0,unknown
1500042130410,0,64,1.40625E-5,40,40,46,1386108,859922,16762918,16753313,17547,77441,9251,5334,Tag0,unknown
1500042130410,0,26,5.712890625E-6,40,40,46,1386108,859922,16762918,16753313,17547,77441,9251,5334,Tag0,unknown
1500042130410,0,68,1.4941406250000001E-5,40,40,46,1386108,859922,16762918,16753313,17547,77441,9251,5334,Tag0,unknown
1500042130411,0,-107,-2.35107421875E-5,40,40,46,1386108,859922,16762918,16753313,17547,77441,9251,5334,Tag0,unknown
1500042130411,0,-54,-1.1865234375000001E-5,40,40,46,1386108,859922,16762918,16753313,17547,77441,9251,5334,Tag0,unknown
1500042130411,0,-118,-2.5927734375E-5,40,40,46,1386108,859922,16762918,16753313,17547,77441,9251,5334,Tag0,unknown
1500042130412,0,36,7.91015625E-6,40,40,46,1386108,859922,16762918,16753313,17547,77441,9251,5334,Tag0,unknown
1500042130412,0,50,1.0986328125E-5,40,40,46,1386108,859922,16762918,16753313,17547,77441,9251,5334,Tag0,unknown
1500042130413,0,-86,-1.8896484375000003E-5,40,40,46,1386108,859922,16762918,16753313,17547,77441,9251,5334,Tag0,unknown
1500042130425,0,266,5.8447265625E-5,40,40,46,1386108,859922,16762918,16753313,17547,77441,9251,5334,Tag0,unknown
1500042130426,0,-16,-3.515625E-6,40,40,46,1386108,859922,16762918,16753313,17547,77441,9251,5334,Tag0,unknown
1500042130439,0,-110,-2.4169921875E-5,40,40,56,1386108,859922,16762918,16753313,17547,77441,9251,5334,Tag0,unknown
1500042130440,0,-126,-2.7685546875E-5,40,40,56,1386108,859922,16762918,16753313,17547,77441,9251,5334,Tag0,unknown
1500042130441,0,-56,-1.23046875E-5,40,40,56,1386108,859922,16762918,16753313,17547,77441,9251,5334,Tag0,unknown
1500042130441,0,292,6.416015625000001E-5,40,40,56,1386108,859922,16762918,16753313,17547,77441,9251,5334,Tag0,unknown
1500042130442,0,305,6.70166015625E-5,40,40,56,1386108,859922,16762918,16753313,17547,77441,9251,5334,Tag0,unknown
1500042130443,0,263,5.7788085937500005E-5,40,40,56,1386108,859922,16762918,16753313,17547,77441,9251,5334,Tag0,unknown
1500042130443,0,264,5.80078125E-5,40,40,56,1386108,859922,16762918,16753313,17547,77441,9251,5334,Tag0,unknown
1500042130444,0,336,7.382812500000001E-5,40,40,56,1386108,859922,16762918,16753313,17547,77441,9251,5334,Tag0,unknown
1500042130445,0,140,3.076171875E-5,40,40,56,1386108,859922,16762918,16753313,17547,77441,9251,5334,Tag0,unknown
1500042130446,0,134,2.9443359375000003E-5,40,40,56,1386108,859922,16762918,16753313,17547,77441,9251,5334,Tag0,unknown
1500042130447,0,312,6.85546875E-5,40,40,56,1386108,859922,16762918,16753313,17547,77441,9251,5334,Tag0,unknown
1500042130447,0,267,5.86669921875E-5,40,40,56,1386108,859922,16762918,16753313,17547,77441,9251,5334,Tag0,unknown
1500042130448,0,305,6.70166015625E-5,40,40,56,1386108,859922,16762918,16753313,17547,77441,9251,5334,Tag0,unknown
1500042130448,0,360,7.91015625E-5,40,40,56,1386108,859922,16762918,16753313,17547,77441,9251,5334,Tag0,unknown
1500042130449,0,352,7.734375E-5,40,40,56,1386108,859922,16762918,16753313,17547,77441,9251,5334,Tag0,unknown
1500042130449,0,262,5.7568359375E-5,40,40,56,1386108,859922,16762918,16753313,17547,77441,9251,5334,Tag0,unknown
1500042130450,0,-63,-1.38427734375E-5,40,40,56,1386108,859922,16762918,16753313,17547,77441,9251,5334,Tag0,unknown
1500042130451,0,-36,-7.91015625E-6,40,40,56,1386108,859922,16762918,16753313,17547,77441,9251,5334,Tag0,unknown
1500042130462,0,298,6.5478515625E-5,40,40,56,1386108,859922,16762918,16753313,17547,77441,9251,5334,Tag0,unknown
1500042130471,0,320,7.03125E-5,40,40,56,1386108,859922,16762918,16753313,17547,77441,9251,5334,Tag0,unknown
1500042130472,0,-4,-8.7890625E-7,40,40,56,1386108,859922,16762918,16753313,17547,77441,9251,5334,Tag0,unknown
1500042130473,0,-48,-1.0546875E-5,40,40,56,1386108,859922,16762918,16753313,17547,77441,9251,5334,Tag0,unknown
1500042130473,0,-27,-5.9326171875000005E-6,40,40,56,1386108,859922,16762918,16753313,17547,77441,9251,5334,Tag0,unknown
1500042130474,0,295,6.48193359375E-5,40,40,56,1386108,859922,16762918,16753313,17547,77441,9251,5334,Tag0,unknown
1500042130475,0,345,7.58056640625E-5,40,40,56,1386108,859922,16762918,16753313,17547,77441,9251,5334,Tag0,unknown
1500042130475,0,310,6.8115234375E-5,40,40,56,1386108,859922,16762918,16753313,17547,77441,9251,5334,Tag0,unknown
1500042130476,0,261,5.73486328125E-5,40,40,56,1386108,859922,16762918,16753313,17547,77441,9251,5334,Tag0,unknown
1500042130477,0,281,6.17431640625E-5,40,40,56,1386108,859922,16762918,16753313,17547,77441,9251,5334,Tag0,unknown
1500042130478,0,339,7.448730468750001E-5,40,47,56,385979,28207,13065,9631,3347,2600,1028,1075,Tag0,unknown
1500042130479,0,333,7.316894531249999E-5,40,47,56,385979,28207,13065,9631,3347,2600,1028,1075,Tag0,unknown
1500042130479,0,-14,-3.076171875E-6,40,47,56,385979,28207,13065,9631,3347,2600,1028,1075,Tag0,unknown
1500042130479,0,-127,-2.79052734375E-5,40,47,56,385979,28207,13065,9631,3347,2600,1028,1075,Tag0,unknown
1500042130480,0,77,1.69189453125E-5,40,47,56,385979,28207,13065,9631,3347,2600,1028,1075,Tag0,unknown
1500042130480,0,89,1.95556640625E-5,40,47,56,385979,28207,13065,9631,3347,2600,1028,1075,Tag0,unknown
1500042130498,0,86,1.8896484375000003E-5,40,47,56,385979,28207,13065,9631,3347,2600,1028,1075,Tag0,unknown
1500042130505,0,-291,-6.39404296875E-5,40,47,56,385979,28207,13065,9631,3347,2600,1028,1075,Tag0,unknown
1500042130506,0,-167,-3.6694335937500004E-5,40,47,56,385979,28207,13065,9631,3347,2600,1028,1075,Tag0,unknown
1500042130507,0,-185,-4.06494140625E-5,40,47,56,385979,28207,13065,9631,3347,2600,1028,1075,Tag0,unknown
1500042130507,0,-381,-8.371582031250001E-5,40,47,56,385979,28207,13065,9631,3347,2600,1028,1075,Tag0,unknown
1500042130508,0,-356,-7.822265625E-5,40,47,56,385979,28207,13065,9631,3347,2600,1028,1075,Tag0,unknown
1500042130508,0,-154,-3.3837890625E-5,40,47,56,385979,28207,13065,9631,3347,2600,1028,1075,Tag0,unknown
1500042130509,0,-229,-5.03173828125E-5,40,47,56,385979,28207,13065,9631,3347,2600,1028,1075,Tag0,unknown
1500042130509,0,-232,-5.09765625E-5,40,47,56,385979,28207,13065,9631,3347,2600,1028,1075,Tag0,unknown
1500042130510,0,-165,-3.62548828125E-5,40,47,56,385979,28207,13065,9631,3347,2600,1028,1075,Tag0,unknown
1500042130511,0,-349,-7.668457031250001E-5,40,47,56,385979,28207,13065,9631,3347,2600,1028,1075,Tag0,unknown
1500042130511,0,-354,-7.778320312500001E-5,40,47,56,385979,28207,13065,9631,3347,2600,1028,1075,Tag0,unknown
1500042130511,0,-162,-3.5595703125E-5,40,47,56,385979,28207,13065,9631,3347,2600,1028,1075,Tag0,unknown
1500042130512,0,-189,-4.15283203125E-5,40,47,56,385979,28207,13065,9631,3347,2600,1028,1075,Tag0,unknown
1500042130512,0,-132,-2.900390625E-5,40,47,56,385979,28207,13065,9631,3347,2600,1028,1075,Tag0,unknown
1500042130513,0,-310,-6.8115234375E-5,40,47,56,385979,28207,13065,9631,3347,2600,1028,1075,Tag0,unknown
1500042130514,0,-302,-6.6357421875E-5,40,47,56,385979,28207,13065,9631,3347,2600,1028,1075,Tag0,unknown
1500042130514,0,-363,-7.97607421875E-5,40,47,56,385979,28207,13065,9631,3347,2600,1028,1075,Tag0,unknown
1500042130515,0,-139,-3.0541992187500004E-5,40,47,56,385979,28207,13065,9631,3347,2600,1028,1075,Tag0,unknown
1500042130515,0,-359,-7.88818359375E-5,40,47,56,385979,28207,13065,9631,3347,2600,1028,1075,Tag0,unknown
1500042130537,0,-263,-5.7788085937500005E-5,40,47,56,385979,28207,13065,9631,3347,2600,1028,1075,Tag0,unknown
1500042130556,0,60,1.318359375E-5,40,47,56,385979,28207,13065,9631,3347,2600,1028,1075,Tag0,unknown
1500042130557,0,22,4.833984375E-6,40,47,56,385979,28207,13065,9631,3347,2600,1028,1075,Tag0,unknown
1500042130557,0,-318,-6.9873046875E-5,40,47,56,385979,28207,13065,9631,3347,2600,1028,1075,Tag0,unknown
1500042130558,0,-314,-6.8994140625E-5,40,47,56,385979,28207,13065,9631,3347,2600,1028,1075,Tag0,unknown
1500042130559,0,39,8.5693359375E-6,40,47,56,385979,28207,13065,9631,3347,2600,1028,1075,Tag0,unknown
1500042130560,0,92,2.021484375E-5,40,47,45,385979,28207,13065,9631,3347,2600,1028,1075,Tag0,unknown
1500042130560,0,54,1.1865234375000001E-5,40,47,45,385979,28207,13065,9631,3347,2600,1028,1075,Tag0,unknown
1500042130561,0,34,7.4707031250000005E-6,40,47,45,385979,28207,13065,9631,3347,2600,1028,1075,Tag0,unknown
1500042130562,0,104,2.28515625E-5,40,47,45,385979,28207,13065,9631,3347,2600,1028,1075,Tag0,unknown
1500042130563,0,-40,-8.7890625E-6,40,47,45,385979,28207,13065,9631,3347,2600,1028,1075,Tag0,unknown
1500042130563,0,279,6.13037109375E-5,40,47,45,385979,28207,13065,9631,3347,2600,1028,1075,Tag0,unknown
1500042130564,0,-55,-1.20849609375E-5,40,47,45,385979,28207,13065,9631,3347,2600,1028,1075,Tag0,unknown
1500042130564,0,76,1.669921875E-5,40,47,45,385979,28207,13065,9631,3347,2600,1028,1075,Tag0,unknown
1500042130565,0,59,1.29638671875E-5,40,47,45,385979,28207,13065,9631,3347,2600,1028,1075,Tag0,unknown
1500042130565,0,-87,-1.91162109375E-5,40,47,45,385979,28207,13065,9631,3347,2600,1028,1075,Tag0,unknown
1500042130566,0,268,5.8886718750000006E-5,40,47,45,385979,28207,13065,9631,3347,2600,1028,1075,Tag0,unknown
1500042130566,0,257,5.64697265625E-5,40,47,45,385979,28207,13065,9631,3347,2600,1028,1075,Tag0,unknown
1500042130567,0,-47,-1.0327148437500001E-5,40,47,45,385979,28207,13065,9631,3347,2600,1028,1075,Tag0,unknown
1500042130567,0,-12,-2.63671875E-6,40,47,45,385979,28207,13065,9631,3347,2600,1028,1075,Tag0,unknown
1500042130575,0,329,7.229003906250001E-5,40,47,45,385979,28207,13065,9631,3347,2600,1028,1075,Tag0,unknown
1500042130575,0,156,3.427734375E-5,40,47,45,385979,28207,13065,9631,3347,2600,1028,1075,Tag0,unknown
1500042130576,0,164,3.6035156249999995E-5,40,47,45,385979,28207,13065,9631,3347,2600,1028,1075,Tag0,unknown
1500042130590,0,363,7.97607421875E-5,40,47,45,385979,28207,13065,9631,3347,2600,1028,1075,Tag0,unknown
1500042130591,0,356,7.822265625E-5,40,47,45,385979,28207,13065,9631,3347,2600,1028,1075,Tag0,unknown
1500042130591,0,180,3.955078125E-5,40,47,45,385979,28207,13065,9631,3347,2600,1028,1075,Tag0,unknown
1500042130592,0,534,1.17333984375E-4,40,47,45,385979,28207,13065,9631,3347,2600,1028,1075,Tag0,unknown
1500042130593,0,550,1.20849609375E-4,40,47,45,385979,28207,13065,9631,3347,2600,1028,1075,Tag0,unknown
1500042130593,0,236,5.185546875E-5,40,47,45,385979,28207,13065,9631,3347,2600,1028,1075,Tag0,unknown
1500042130594,0,217,4.76806640625E-5,40,47,45,385979,28207,13065,9631,3347,2600,1028,1075,Tag0,unknown
1500042130595,0,248,5.44921875E-5,40,47,45,385979,28207,13065,9631,3347,2600,1028,1075,Tag0,unknown
1500042130596,0,536,1.1777343750000001E-4,40,47,45,385979,28207,13065,9631,3347,2600,1028,1075,Tag0,unknown
1500042130596,0,519,1.140380859375E-4,40,47,45,385979,28207,13065,9631,3347,2600,1028,1075,Tag0,unknown
1500042130597,0,186,4.0869140625E-5,40,47,45,385979,28207,13065,9631,3347,2600,1028,1075,Tag0,unknown
1500042130598,0,134,2.9443359375000003E-5,40,47,45,385979,28207,13065,9631,3347,2600,1028,1075,Tag0,unknown
1500042130598,0,167,3.6694335937500004E-5,40,47,45,385979,28207,13065,9631,3347,2600,1028,1075,Tag0,unknown
1500042130598,0,246,5.4052734375E-5,40,47,45,385979,28207,13065,9631,3347,2600,1028,1075,Tag0,unknown
1500042130599,0,530,1.16455078125E-4,40,47,45,385979,28207,13065,9631,3347,2600,1028,1075,Tag0,unknown
1500042130599,0,226,4.9658203125E-5,40,47,45,385979,28207,13065,9631,3347,2600,1028,1075,Tag0,unknown
1500042130600,0,199,4.3725585937499995E-5,40,47,45,385979,28207,13065,9631,3347,2600,1028,1075,Tag0,unknown
1500042130610,0,244,5.361328125E-5,40,47,45,385979,28207,13065,9631,3347,2600,1028,1075,Tag0,unknown
1500042130623,0,579,1.272216796875E-4,40,47,45,385979,28207,13065,9631,3347,2600,1028,1075,Tag0,unknown
1500042130624,0,621,1.364501953125E-4,40,47,45,385979,28207,13065,9631,3347,2600,1028,1075,Tag0,unknown
1500042130624,0,564,1.2392578125E-4,40,47,45,385979,28207,13065,9631,3347,2600,1028,1075,Tag0,unknown
1500042130625,0,229,5.03173828125E-5,40,47,45,385979,28207,13065,9631,3347,2600,1028,1075,Tag0,unknown
1500042130625,0,228,5.0097656250000005E-5,40,47,45,385979,28207,13065,9631,3347,2600,1028,1075,Tag0,unknown
1500042130626,0,549,1.2062988281250001E-4,40,47,45,385979,28207,13065,9631,3347,2600,1028,1075,Tag0,unknown
1500042130627,0,569,1.250244140625E-4,40,47,45,385979,28207,13065,9631,3347,2600,1028,1075,Tag0,unknown
1500042130627,0,220,4.833984375E-5,40,47,45,385979,28207,13065,9631,3347,2600,1028,1075,Tag0,unknown
1500042130628,0,361,7.93212890625E-5,40,47,45,385979,28207,13065,9631,3347,2600,1028,1075,Tag0,unknown
1500042130628,0,333,7.316894531249999E-5,40,47,45,385979,28207,13065,9631,3347,2600,1028,1075,Tag0,unknown
1500042130629,0,381,8.371582031250001E-5,40,47,45,385979,28207,13065,9631,3347,2600,1028,1075,Tag0,unknown
1500042130629,0,166,3.6474609375E-5,40,47,45,385979,28207,13065,9631,3347,2600,1028,1075,Tag0,unknown
1500042130630,0,374,8.2177734375E-5,40,47,45,385979,28207,13065,9631,3347,2600,1028,1075,Tag0,unknown
1500042130630,0,289,6.35009765625E-5,40,47,45,385979,28207,13065,9631,3347,2600,1028,1075,Tag0,unknown
1500042130630,0,265,5.82275390625E-5,40,47,45,385979,28207,13065,9631,3347,2600,1028,1075,Tag0,unknown
1500042130630,0,324,7.119140625E-5,40,47,45,385979,28207,13065,9631,3347,2600,1028,1075,Tag0,unknown
1500042130631,0,379,8.32763671875E-5,40,47,45,385979,28207,13065,9631,3347,2600,1028,1075,Tag0,unknown
1500042130631,0,360,7.91015625E-5,40,47,45,385979,28207,13065,9631,3347,2600,1028,1075,Tag0,unknown
1500042130632,0,285,6.26220703125E-5,40,47,45,385979,28207,13065,9631,3347,2600,1028,1075,Tag0,unknown
1500042130647,0,278,6.108398437500001E-5,40,47,45,385979,28207,13065,9631,3347,2600,1028,1075,Tag0,unknown
1500042130648,0,347,7.62451171875E-5,40,47,45,385979,28207,13065,9631,3347,2600,1028,1075,Tag0,unknown
1500042130658,0,155,3.40576171875E-5,40,47,45,385979,28207,13065,9631,3347,2600,1028,1075,Tag0,unknown
1500042130659,0,380,8.349609375E-5,40,47,45,385979,28207,13065,9631,3347,2600,1028,1075,Tag0,unknown
1500042130659,0,273,5.998535156250001E-5,40,47,45,385979,28207,13065,9631,3347,2600,1028,1075,Tag0,unknown
1500042130660,0,-56,-1.23046875E-5,40,47,45,385979,28207,13065,9631,3347,2600,1028,1075,Tag0,unknown
1500042130661,0,-35,-7.6904296875E-6,40,47,45,385979,28207,13065,9631,3347,2600,1028,1075,Tag0,unknown
1500042130662,0,276,6.064453125E-5,40,47,45,385979,28207,13065,9631,3347,2600,1028,1075,Tag0,unknown
1500042130662,0,261,5.73486328125E-5,40,47,45,385979,28207,13065,9631,3347,2600,1028,1075,Tag0,unknown
1500042130663,0,-96,-2.109375E-5,40,47,45,385979,28207,13065,9631,3347,2600,1028,1075,Tag0,unknown
1500042130664,0,88,1.93359375E-5,40,47,45,385979,28207,13065,9631,3347,2600,1028,1075,Tag0,unknown
1500042130665,0,108,2.3730468750000002E-5,40,47,45,385979,28207,13065,9631,3347,2600,1028,1075,Tag0,unknown
1500042130666,0,-77,-1.69189453125E-5,40,47,45,385979,28207,13065,9631,3347,2600,1028,1075,Tag0,unknown
1500042130666,0,-53,-1.1645507812500002E-5,40,47,45,385979,28207,13065,9631,3347,2600,1028,1075,Tag0,unknown
1500042130666,0,-117,-2.5708007812499998E-5,40,47,45,385979,28207,13065,9631,3347,2600,1028,1075,Tag0,unknown
1500042130667,0,85,1.86767578125E-5,40,47,45,385979,28207,13065,9631,3347,2600,1028,1075,Tag0,unknown
1500042130668,0,106,2.3291015625000003E-5,40,47,45,385979,28207,13065,9631,3347,2600,1028,1075,Tag0,unknown
1500042130668,0,-85,-1.86767578125E-5,40,47,45,385979,28207,13065,9631,3347,2600,1028,1075,Tag0,unknown
1500042130668,0,-67,-1.4721679687500002E-5,40,47,45,385979,28207,13065,9631,3347,2600,1028,1075,Tag0,unknown
1500042130669,0,-124,-2.724609375E-5,40,47,45,385979,28207,13065,9631,3347,2600,1028,1075,Tag0,unknown
1500042130689,0,69,1.51611328125E-5,40,47,45,385979,28207,13065,9631,3347,2600,1028,1075,Tag0,unknown
1500042130708,0,64,1.40625E-5,40,47,45,385979,28207,13065,9631,3347,2600,1028,1075,Tag0,unknown
1500042130709,0,101,2.2192382812500002E-5,40,47,45,385979,28207,13065,9631,3347,2600,1028,1075,Tag0,unknown
1500042130710,0,108,2.3730468750000002E-5,40,47,45,385979,28207,13065,9631,3347,2600,1028,1075,Tag0,unknown
1500042130710,0,1,2.197265625E-7,40,47,45,385979,28207,13065,9631,3347,2600,1028,1075,Tag0,unknown
1500042130711,0,-139,-3.0541992187500004E-5,40,47,45,385979,28207,13065,9631,3347,2600,1028,1075,Tag0,unknown
1500042130712,0,-172,-3.7792968750000005E-5,40,47,45,385979,28207,13065,9631,3347,2600,1028,1075,Tag0,unknown
1500042130713,0,-362,-7.954101562500001E-5,40,47,45,385979,28207,13065,9631,3347,2600,1028,1075,Tag0,unknown
1500042130713,0,-344,-7.558593750000001E-5,40,47,45,385979,28207,13065,9631,3347,2600,1028,1075,Tag0,unknown
1500042130714,0,-185,-4.06494140625E-5,40,47,45,385979,28207,13065,9631,3347,2600,1028,1075,Tag0,unknown
1500042130715,0,-561,-1.232666015625E-4,40,47,45,385979,28207,13065,9631,3347,2600,1028,1075,Tag0,unknown
1500042130716,0,-587,-1.2897949218750003E-4,40,47,45,385979,28207,13065,9631,3347,2600,1028,1075,Tag0,unknown
1500042130716,0,-541,-1.1887207031250001E-4,40,47,45,385979,28207,13065,9631,3347,2600,1028,1075,Tag0,unknown
1500042130717,0,-253,-5.55908203125E-5,40,47,45,385979,28207,13065,9631,3347,2600,1028,1075,Tag0,unknown
1500042130717,0,-580,-1.2744140625E-4,40,47,45,385979,28207,13065,9631,3347,2600,1028,1075,Tag0,unknown
1500042130718,0,-435,-9.55810546875E-5,40,47,45,385979,28207,13065,9631,3347,2600,1028,1075,Tag0,unknown
1500042130718,0,-469,-1.0305175781250001E-4,40,47,45,385979,28207,13065,9631,3347,2600,1028,1075,Tag0,unknown
1500042130719,0,-402,-8.8330078125E-5,40,47,45,385979,28207,13065,9631,3347,2600,1028,1075,Tag0,unknown
1500042130719,0,-585,-1.285400390625E-4,40,47,45,385979,28207,13065,9631,3347,2600,1028,1075,Tag0,unknown
1500042130720,0,-604,-1.3271484375E-4,40,47,45,385979,28207,13065,9631,3347,2600,1028,1075,Tag0,unknown
1500042130726,0,-424,-9.316406250000001E-5,40,47,45,385979,28207,13065,9631,3347,2600,1028,1075,Tag0,unknown
1500042130741,0,-421,-9.25048828125E-5,40,47,45,385979,28207,13065,9631,3347,2600,1028,1075,Tag0,unknown
1500042130742,0,-584,-1.2832031250000002E-4,40,47,45,385979,28207,13065,9631,3347,2600,1028,1075,Tag0,unknown
1500042130742,0,-209,-4.59228515625E-5,40,47,45,385979,28207,13065,9631,3347,2600,1028,1075,Tag0,unknown
1500042130743,0,-163,-3.5815429687500006E-5,40,47,45,385979,28207,13065,9631,3347,2600,1028,1075,Tag0,unknown
1500042130744,0,-220,-4.833984375E-5,40,47,45,385979,28207,13065,9631,3347,2600,1028,1075,Tag0,unknown
1500042130744,0,-521,-1.1447753906250001E-4,40,47,45,385979,28207,13065,9631,3347,2600,1028,1075,Tag0,unknown
1500042130745,0,-218,-4.7900390625E-5,40,47,45,385979,28207,13065,9631,3347,2600,1028,1075,Tag0,unknown
1500042130745,0,-131,-2.87841796875E-5,40,47,45,385979,28207,13065,9631,3347,2600,1028,1075,Tag0,unknown
1500042130746,0,-360,-7.91015625E-5,40,47,45,385979,28207,13065,9631,3347,2600,1028,1075,Tag0,unknown
1500042130747,0,-171,-3.75732421875E-5,40,47,45,385979,28207,13065,9631,3347,2600,1028,1075,Tag0,unknown
1500042130748,0,-217,-4.76806640625E-5,40,47,45,385979,28207,13065,9631,3347,2600,1028,1075,Tag0,unknown
1500042130748,0,-172,-3.7792968750000005E-5,40,47,45,385979,28207,13065,9631,3347,2600,1028,1075,Tag0,unknown
1500042130748,0,-350,-7.6904296875E-5,40,47,45,385979,28207,13065,9631,3347,2600,1028,1075,Tag0,unknown
1500042130749,0,-328,-7.207031249999999E-5,40,47,45,385979,28207,13065,9631,3347,2600,1028,1075,Tag0,unknown
1500042130749,0,-157,-3.44970703125E-5,40,47,45,385979,28207,13065,9631,3347,2600,1028,1075,Tag0,unknown
1500042130749,0,-253,-5.55908203125E-5,40,47,45,385979,28207,13065,9631,3347,2600,1028,1075,Tag0,unknown
1500042130750,0,-514,-1.12939453125E-4,40,47,45,385979,28207,13065,9631,3347,2600,1028,1075,Tag0,unknown
1500042130751,0,-188,-4.1308593750000004E-5,40,47,45,385979,28207,13065,9631,3347,2600,1028,1075,Tag0,unknown
1500042130751,0,-162,-3.5595703125E-5,40,47,45,385979,28207,13065,9631,3347,2600,1028,1075,Tag0,unknown
1500042130764,0,-203,-4.460449218750001E-5,40,47,45,385979,28207,13065,9631,3347,2600,1028,1075,Tag0,unknown
1500042130775,0,-231,-5.07568359375E-5,40,47,45,385979,28207,13065,9631,3347,2600,1028,1075,Tag0,unknown
1500042130775,0,-177,-3.8891601562500006E-5,40,47,45,385979,28207,13065,9631,3347,2600,1028,1075,Tag0,unknown
1500042130776,0,-316,-6.943359375000001E-5,40,47,45,385979,28207,13065,9631,3347,2600,1028,1075,Tag0,unknown
1500042130776,0,26,5.712890625E-6,40,47,45,385979,28207,13065,9631,3347,2600,1028,1075,Tag0,unknown
1500042130777,0,7,1.5380859375E-6,40,47,45,385979,28207,13065,9631,3347,2600,1028,1075,Tag0,unknown
1500042130778,0,-310,-6.8115234375E-5,40,47,45,385979,28207,13065,9631,3347,2600,1028,1075,Tag0,unknown
1500042130778,0,-296,-6.50390625E-5,40,47,45,385979,28207,13065,9631,3347,2600,1028,1075,Tag0,unknown
1500042130779,0,65,1.42822265625E-5,40,47,45,385979,28207,13065,9631,3347,2600,1028,1075,Tag0,unknown
1500042130780,0,-109,-2.39501953125E-5,40,47,45,385979,28207,13065,9631,3347,2600,1028,1075,Tag0,unknown
1500042130780,0,114,2.5048828125000003E-5,40,47,76,385979,28207,13065,9631,3347,2600,1028,1075,Tag0,unknown
1500042130781,0,24,5.2734375E-6,40,47,76,385979,28207,13065,9631,3347,2600,1028,1075,Tag0,unknown
1500042130781,0,5,1.0986328125E-6,40,47,76,385979,28207,13065,9631,3347,2600,1028,1075,Tag0,unknown
1500042130781,0,67,1.4721679687500002E-5,40,47,76,385979,28207,13065,9631,3347,2600,1028,1075,Tag0,unknown
1500042130782,0,-103,-2.26318359375E-5,40,47,76,385979,28207,13065,9631,3347,2600,1028,1075,Tag0,unknown
1500042130782,0,-102,-2.2412109374999998E-5,40,47,76,385979,28207,13065,9631,3347,2600,1028,1075,Tag0,unknown
1500042130783,0,49,1.07666015625E-5,40,47,76,385979,28207,13065,9631,3347,2600,1028,1075,Tag0,unknown
1500042130783,0,-264,-5.80078125E-5,40,47,76,385979,28207,13065,9631,3347,2600,1028,1075,Tag0,unknown
1500042130784,0,56,1.23046875E-5,40,47,76,385979,28207,13065,9631,3347,2600,1028,1075,Tag0,unknown
1500042130784,0,-96,-2.109375E-5,40,47,76,385979,28207,13065,9631,3347,2600,1028,1075,Tag0,unknown
1500042130802,0,-53,-1.1645507812500002E-5,40,47,76,385979,28207,13065,9631,3347,2600,1028,1075,Tag0,unknown
1500042130809,0,-101,-2.2192382812500002E-5,40,47,76,385979,28207,13065,9631,3347,2600,1028,1075,Tag0,unknown
1500042130810,0,92,2.021484375E-5,40,47,76,385979,28207,13065,9631,3347,2600,1028,1075,Tag0,unknown
1500042130810,0,117,2.5708007812499998E-5,40,47,76,385979,28207,13065,9631,3347,2600,1028,1075,Tag0,unknown
1500042130811,0,-37,-8.1298828125E-6,40,47,76,385979,28207,13065,9631,3347,2600,1028,1075,Tag0,unknown
1500042130812,0,282,6.1962890625E-5,40,47,76,385979,28207,13065,9631,3347,2600,1028,1075,Tag0,unknown
1500042130813,0,-52,-1.142578125E-5,40,47,76,385979,28207,13065,9631,3347,2600,1028,1075,Tag0,unknown
1500042130813,0,82,1.8017578124999998E-5,40,47,76,385979,28207,13065,9631,3347,2600,1028,1075,Tag0,unknown
1500042130814,0,60,1.318359375E-5,40,47,76,385979,28207,13065,9631,3347,2600,1028,1075,Tag0,unknown
1500042130815,0,124,2.724609375E-5,40,47,76,385979,28207,13065,9631,3347,2600,1028,1075,Tag0,unknown
1500042130826,0,-102,-2.2412109374999998E-5,40,47,76,385979,28207,13065,9631,3347,2600,1028,1075,Tag0,unknown
1500042130827,0,96,2.109375E-5,40,47,76,385979,28207,13065,9631,3347,2600,1028,1075,Tag0,unknown
1500042130828,0,43,9.448242187500001E-6,40,47,76,385979,28207,13065,9631,3347,2600,1028,1075,Tag0,unknown
1500042130829,0,72,1.58203125E-5,40,47,76,385979,28207,13065,9631,3347,2600,1028,1075,Tag0,unknown
1500042130830,0,-108,-2.3730468750000002E-5,40,47,76,385979,28207,13065,9631,3347,2600,1028,1075,Tag0,unknown
1500042130830,0,-44,-9.66796875E-6,40,47,76,385979,28207,13065,9631,3347,2600,1028,1075,Tag0,unknown
1500042130831,0,-68,-1.4941406250000001E-5,40,47,76,385979,28207,13065,9631,3347,2600,1028,1075,Tag0,unknown
1500042130832,0,-121,-2.6586914062500003E-5,40,47,76,385979,28207,13065,9631,3347,2600,1028,1075,Tag0,unknown
1500042130833,0,-110,-2.4169921875E-5,40,47,76,385979,28207,13065,9631,3347,2600,1028,1075,Tag0,unknown
1500042130833,0,-43,-9.448242187500001E-6,40,47,76,385979,28207,13065,9631,3347,2600,1028,1075,Tag0,unknown
1500042130842,0,-15,-3.2958984375E-6,40,47,76,385979,28207,13065,9631,3347,2600,1028,1075,Tag0,unknown
1500042130843,0,-99,-2.1752929687500003E-5,40,47,76,385979,28207,13065,9631,3347,2600,1028,1075,Tag0,unknown
1500042130844,0,43,9.448242187500001E-6,40,47,76,385979,28207,13065,9631,3347,2600,1028,1075,Tag0,unknown
1500042130845,0,22,4.833984375E-6,40,47,76,385979,28207,13065,9631,3347,2600,1028,1075,Tag0,unknown
1500042130846,0,87,1.91162109375E-5,40,47,76,385979,28207,13065,9631,3347,2600,1028,1075,Tag0,unknown
1500042130846,0,-110,-2.4169921875E-5,40,47,76,385979,28207,13065,9631,3347,2600,1028,1075,Tag0,unknown
1500042130847,0,100,2.197265625E-5,40,47,76,385979,28207,13065,9631,3347,2600,1028,1075,Tag0,unknown
1500042130848,0,-264,-5.80078125E-5,40,47,76,385979,28207,13065,9631,3347,2600,1028,1075,Tag0,unknown
1500042130849,0,-305,-6.70166015625E-5,40,47,76,385979,28207,13065,9631,3347,2600,1028,1075,Tag0,unknown
1500042130849,0,32,7.03125E-6,40,47,76,385979,28207,13065,9631,3347,2600,1028,1075,Tag0,unknown
1500042130870,0,-99,-2.1752929687500003E-5,40,47,76,385979,28207,13065,9631,3347,2600,1028,1075,Tag0,unknown
1500042130877,0,-39,-8.5693359375E-6,40,47,76,385979,28207,13065,9631,3347,2600,1028,1075,Tag0,unknown
1500042130878,0,-62,-1.3623046875E-5,40,47,76,385979,28207,13065,9631,3347,2600,1028,1075,Tag0,unknown
1500042130879,0,-75,-1.64794921875E-5,40,47,76,385979,28207,13065,9631,3347,2600,1028,1075,Tag0,unknown
1500042130879,0,-35,-7.6904296875E-6,40,47,76,385979,28207,13065,9631,3347,2600,1028,1075,Tag0,unknown
1500042130880,0,284,6.240234375E-5,40,47,76,385979,28207,13065,9631,3347,2600,1028,1075,Tag0,unknown
1500042130881,0,291,6.39404296875E-5,40,47,76,385979,28207,13065,9631,3347,2600,1028,1075,Tag0,unknown
1500042130881,0,-61,-1.34033203125E-5,40,47,76,385979,28207,13065,9631,3347,2600,1028,1075,Tag0,unknown
1500042130882,0,115,2.52685546875E-5,40,47,76,385979,28207,13065,9631,3347,2600,1028,1075,Tag0,unknown
1500042130883,0,-119,-2.6147460937500004E-5,40,47,76,385979,28207,13065,9631,3347,2600,1028,1075,Tag0,unknown
1500042130884,0,-20,-4.39453125E-6,40,47,76,385979,28207,13065,9631,3347,2600,1028,1075,Tag0,unknown
1500042130884,0,312,6.85546875E-5,40,47,76,385979,28207,13065,9631,3347,2600,1028,1075,Tag0,unknown
1500042130885,0,306,6.723632812500001E-5,40,47,76,385979,28207,13065,9631,3347,2600,1028,1075,Tag0,unknown
1500042130886,0,293,6.43798828125E-5,40,47,76,385979,28207,13065,9631,3347,2600,1028,1075,Tag0,unknown
1500042130886,0,348,7.646484375E-5,40,47,76,385979,28207,13065,9631,3347,2600,1028,1075,Tag0,unknown
1500042130887,0,192,4.21875E-5,40,47,76,385979,28207,13065,9631,3347,2600,1028,1075,Tag0,unknown
1500042130888,0,247,5.42724609375E-5,40,47,76,385979,28207,13065,9631,3347,2600,1028,1075,Tag0,unknown
1500042130888,0,195,4.28466796875E-5,40,47,76,385979,28207,13065,9631,3347,2600,1028,1075,Tag0,unknown
1500042130889,0,377,8.28369140625E-5,40,47,76,385979,28207,13065,9631,3347,2600,1028,1075,Tag0,unknown
1500042130890,0,377,8.28369140625E-5,40,47,76,385979,28207,13065,9631,3347,2600,1028,1075,Tag0,unknown
1500042130907,0,193,4.2407226562500005E-5,40,47,76,385979,28207,13065,9631,3347,2600,1028,1075,Tag0,unknown
1500042130926,0,229,5.03173828125E-5,40,47,76,385979,28207,13065,9631,3347,2600,1028,1075,Tag0,unknown
1500042130927,0,181,3.9770507812500004E-5,40,47,76,385979,28207,13065,9631,3347,2600,1028,1075,Tag0,unknown
1500042130928,0,132,2.900390625E-5,40,47,76,385979,28207,13065,9631,3347,2600,1028,1075,Tag0,unknown
1500042130929,0,167,3.6694335937500004E-5,40,47,76,385979,28207,13065,9631,3347,2600,1028,1075,Tag0,unknown
1500042130929,0,524,1.1513671875E-4,40,47,76,385979,28207,13065,9631,3347,2600,1028,1075,Tag0,unknown
1500042130930,0,620,1.3623046875E-4,40,47,76,385979,28207,13065,9631,3347,2600,1028,1075,Tag0,unknown
1500042130931,0,615,1.351318359375E-4,40,47,76,385979,28207,13065,9631,3347,2600,1028,1075,Tag0,unknown
1500042130932,0,562,1.23486328125E-4,40,47,76,385979,28207,13065,9631,3347,2600,1028,1075,Tag0,unknown
1500042130933,0,571,1.254638671875E-4,40,47,76,385979,28207,13065,9631,3347,2600,1028,1075,Tag0,unknown
1500042130934,0,394,8.6572265625E-5,40,47,76,385979,28207,13065,9631,3347,2600,1028,1075,Tag0,unknown
1500042130934,0,450,9.8876953125E-5,40,47,76,385979,28207,13065,9631,3347,2600,1028,1075,Tag0,unknown
1500042130935,0,403,8.854980468749999E-5,40,47,76,385979,28207,13065,9631,3347,2600,1028,1075,Tag0,unknown
1500042130935,0,560,1.23046875E-4,40,47,76,385979,28207,13065,9631,3347,2600,1028,1075,Tag0,unknown
1500042130936,0,532,1.1689453125E-4,40,47,76,385979,28207,13065,9631,3347,2600,1028,1075,Tag0,unknown
1500042130936,0,578,1.27001953125E-4,40,47,76,385979,28207,13065,9631,3347,2600,1028,1075,Tag0,unknown
1500042130937,0,631,1.386474609375E-4,40,47,76,385979,28207,13065,9631,3347,2600,1028,1075,Tag0,unknown
1500042130937,0,609,1.338134765625E-4,40,47,76,385979,28207,13065,9631,3347,2600,1028,1075,Tag0,unknown
1500042130937,0,512,1.125E-4,40,47,76,385979,28207,13065,9631,3347,2600,1028,1075,Tag0,unknown
1500042130938,0,211,4.63623046875E-5,40,47,76,385979,28207,13065,9631,3347,2600,1028,1075,Tag0,unknown
1500042130944,0,528,1.16015625E-4,40,47,76,385979,28207,13065,9631,3347,2600,1028,1075,Tag0,unknown
1500042130945,0,602,1.3227539062500001E-4,40,47,76,385979,28207,13065,9631,3347,2600,1028,1075,Tag0,unknown
1500042130946,0,594,1.3051757812500002E-4,40,47,76,385979,28207,13065,9631,3347,2600,1028,1075,Tag0,unknown
1500042130947,0,520,1.142578125E-4,40,47,76,385979,28207,13065,9631,3347,2600,1028,1075,Tag0,unknown
1500042130948,0,242,5.3173828125000005E-5,40,47,76,385979,28207,13065,9631,3347,2600,1028,1075,Tag0,unknown
1500042130948,0,555,1.219482421875E-4,40,47,76,385979,28207,13065,9631,3347,2600,1028,1075,Tag0,unknown
1500042130949,0,393,8.63525390625E-5,40,47,76,385979,28207,13065,9631,3347,2600,1028,1075,Tag0,unknown
1500042130950,0,425,9.33837890625E-5,40,47,76,385979,28207,13065,9631,3347,2600,1028,1075,Tag0,unknown
1500042130951,0,601,1.3205566406249998E-4,40,47,76,385979,28207,13065,9631,3347,2600,1028,1075,Tag0,unknown
1500042130951,0,517,1.135986328125E-4,40,47,76,385979,28207,13065,9631,3347,2600,1028,1075,Tag0,unknown
1500042130960,0,523,1.149169921875E-4,40,47,76,385979,28207,13065,9631,3347,2600,1028,1075,Tag0,unknown
1500042130961,0,598,1.31396484375E-4,40,47,76,385979,28207,13065,9631,3347,2600,1028,1075,Tag0,unknown
1500042130962,0,628,1.3798828125E-4,40,47,76,385979,28207,13065,9631,3347,2600,1028,1075,Tag0,unknown
1500042130963,0,566,1.2436523437500002E-4,40,47,76,385979,28207,13065,9631,3347,2600,1028,1075,Tag0,unknown
1500042130963,0,246,5.4052734375E-5,40,47,76,385979,28207,13065,9631,3347,2600,1028,1075,Tag0,unknown
1500042130964,0,253,5.55908203125E-5,40,47,76,385979,28207,13065,9631,3347,2600,1028,1075,Tag0,unknown
1500042130965,0,564,1.2392578125E-4,40,47,76,385979,28207,13065,9631,3347,2600,1028,1075,Tag0,unknown
1500042130966,0,596,1.3095703125E-4,40,47,76,385979,28207,13065,9631,3347,2600,1028,1075,Tag0,unknown
1500042130966,0,528,1.16015625E-4,40,47,76,385979,28207,13065,9631,3347,2600,1028,1075,Tag0,unknown
1500042130967,0,173,3.80126953125E-5,40,47,76,385979,28207,13065,9631,3347,2600,1028,1075,Tag0,unknown
1500042130980,0,167,3.6694335937500004E-5,40,47,76,385979,28207,13065,9631,3347,2600,1028,1075,Tag0,unknown
1500042130994,0,235,5.16357421875E-5,40,47,76,385979,28207,13065,9631,3347,2600,1028,1075,Tag0,unknown
1500042130995,0,519,1.140380859375E-4,40,47,76,385979,28207,13065,9631,3347,2600,1028,1075,Tag0,unknown
1500042130996,0,184,4.04296875E-5,40,47,76,385979,28207,13065,9631,3347,2600,1028,1075,Tag0,unknown
1500042130996,0,330,7.2509765625E-5,40,47,76,385979,28207,13065,9631,3347,2600,1028,1075,Tag0,unknown
1500042130997,0,314,6.8994140625E-5,40,47,76,385979,28207,13065,9631,3347,2600,1028,1075,Tag0,unknown
1500042130998,0,133,2.92236328125E-5,40,47,76,385979,28207,13065,9631,3347,2600,1028,1075,Tag0,unknown
1500042130999,0,213,4.68017578125E-5,40,47,76,385979,28207,13065,9631,3347,2600,1028,1075,Tag0,unknown
1500042130999,0,194,4.2626953125E-5,40,47,76,385979,28207,13065,9631,3347,2600,1028,1075,Tag0,unknown
1500042131000,0,343,7.53662109375E-5,40,47,76,385979,28207,13065,9631,3347,2600,1028,1075,Tag0,unknown
1500042131001,0,275,6.04248046875E-5,40,47,76,385979,28207,13065,9631,3347,2600,1028,1075,Tag0,unknown
1500042131001,0,307,6.74560546875E-5,40,47,76,385979,28207,13065,9631,3347,2600,1028,1075,Tag0,unknown
1500042131002,0,373,8.19580078125E-5,40,47,76,385979,28207,13065,9631,3347,2600,1028,1075,Tag0,unknown
1500042131003,0,377,8.28369140625E-5,40,47,76,385979,28207,13065,9631,3347,2600,1028,1075,Tag0,unknown
1500042131003,0,316,6.943359375000001E-5,40,47,76,385979,28207,13065,9631,3347,2600,1028,1075,Tag0,unknown
1500042131003,0,298,6.5478515625E-5,40,47,76,385979,28207,13065,9631,3347,2600,1028,1075,Tag0,unknown
1500042131004,0,345,7.58056640625E-5,40,47,76,385979,28207,13065,9631,3347,2600,1028,1075,Tag0,unknown
1500042131004,0,133,2.92236328125E-5,40,47,76,385979,28207,13065,9631,3347,2600,1028,1075,Tag0,unknown
1500042131005,0,349,7.668457031250001E-5,40,47,76,385979,28207,13065,9631,3347,2600,1028,1075,Tag0,unknown
1500042131005,0,-25,-5.4931640625E-6,40,47,76,385979,28207,13065,9631,3347,2600,1028,1075,Tag0,unknown
1500042131017,0,-91,-1.99951171875E-5,40,47,76,385979,28207,13065,9631,3347,2600,1028,1075,Tag0,unknown
1500042131028,0,-20,-4.39453125E-6,40,47,76,385979,28207,13065,9631,3347,2600,1028,1075,Tag0,unknown
1500042131028,0,344,7.558593750000001E-5,40,47,76,385979,28207,13065,9631,3347,2600,1028,1075,Tag0,unknown
1500042131029,0,355,7.80029296875E-5,40,47,76,385979,28207,13065,9631,3347,2600,1028,1075,Tag0,unknown
1500042131030,0,259,5.69091796875E-5,40,47,76,385979,28207,13065,9631,3347,2600,1028,1075,Tag0,unknown
1500042131030,0,-71,-1.56005859375E-5,40,47,76,385979,28207,13065,9631,3347,2600,1028,1075,Tag0,unknown
1500042131031,0,-53,-1.1645507812500002E-5,40,47,76,385979,28207,13065,9631,3347,2600,1028,1075,Tag0,unknown
1500042131032,0,258,5.6689453125000004E-5,40,47,76,385979,28207,13065,9631,3347,2600,1028,1075,Tag0,unknown
1500042131032,0,265,5.82275390625E-5,40,47,76,385979,28207,13065,9631,3347,2600,1028,1075,Tag0,unknown
1500042131033,0,-69,-1.51611328125E-5,40,47,76,385979,28207,13065,9631,3347,2600,1028,1075,Tag0,unknown
1500042131034,0,117,2.5708007812499998E-5,40,47,76,385979,28207,13065,9631,3347,2600,1028,1075,Tag0,unknown
1500042131034,0,-121,-2.6586914062500003E-5,40,47,76,385979,28207,13065,9631,3347,2600,1028,1075,Tag0,unknown
1500042131035,0,-52,-1.142578125E-5,40,47,76,385979,28207,13065,9631,3347,2600,1028,1075,Tag0,unknown
1500042131035,0,-30,-6.591796875E-6,40,47,76,385979,28207,13065,9631,3347,2600,1028,1075,Tag0,unknown
1500042131036,0,-95,-2.08740234375E-5,40,47,76,385979,28207,13065,9631,3347,2600,1028,1075,Tag0,unknown
1500042131036,0,89,1.95556640625E-5,40,47,76,385979,28207,13065,9631,3347,2600,1028,1075,Tag0,unknown
1500042131036,0,103,2.26318359375E-5,40,47,76,385979,28207,13065,9631,3347,2600,1028,1075,Tag0,unknown
1500042131037,0,-83,-1.82373046875E-5,40,47,76,385979,28207,13065,9631,3347,2600,1028,1075,Tag0,unknown
1500042131037,0,-22,-4.833984375E-6,40,47,76,385979,28207,13065,9631,3347,2600,1028,1075,Tag0,unknown
1500042131038,0,-53,-1.1645507812500002E-5,40,47,76,385979,28207,13065,9631,3347,2600,1028,1075,Tag0,unknown
1500042131057,0,117,2.5708007812499998E-5,40,47,76,385979,28207,13065,9631,3347,2600,1028,1075,Tag0,unknown
1500042131076,0,91,1.99951171875E-5,40,47,76,385979,28207,13065,9631,3347,2600,1028,1075,Tag0,unknown
1500042131077,0,-94,-2.0654296875000002E-5,40,47,76,385979,28207,13065,9631,3347,2600,1028,1075,Tag0,unknown
1500042131077,0,-46,-1.0107421875E-5,40,47,76,385979,28207,13065,9631,3347,2600,1028,1075,Tag0,unknown
1500042131078,0,-102,-2.2412109374999998E-5,40,47,76,385979,28207,13065,9631,3347,2600,1028,1075,Tag0,unknown
1500042131078,0,58,1.2744140625E-5,40,47,76,385979,28207,13065,9631,3347,2600,1028,1075,Tag0,unknown
1500042131079,0,33,7.2509765625E-6,40,47,76,385979,28207,13065,9631,3347,2600,1028,1075,Tag0,unknown
1500042131080,0,59,1.29638671875E-5,40,47,76,385979,28207,13065,9631,3347,2600,1028,1075,Tag0,unknown
1500042131080,0,96,2.109375E-5,40,47,76,385979,28207,13065,9631,3347,2600,1028,1075,Tag0,unknown
1500042131081,0,81,1.77978515625E-5,40,47,76,385979,28207,13065,9631,3347,2600,1028,1075,Tag0,unknown
1500042131081,0,5,1.0986328125E-6,40,47,76,385979,28207,13065,9631,3347,2600,1028,1075,Tag0,unknown
1500042131081,0,-295,-6.48193359375E-5,40,47,76,385979,28207,13065,9631,3347,2600,1028,1075,Tag0,unknown
1500042131082,0,4,8.7890625E-7,40,47,76,385979,28207,13065,9631,3347,2600,1028,1075,Tag0,unknown
1500042131082,0,70,1.5380859375E-5,40,47,76,385979,28207,13065,9631,3347,2600,1028,1075,Tag0,unknown
1500042131082,0,61,1.34033203125E-5,40,47,76,385979,28207,13065,9631,3347,2600,1028,1075,Tag0,unknown
1500042131083,0,10,2.197265625E-6,40,47,76,385979,28207,13065,9631,3347,2600,1028,1075,Tag0,unknown
1500042131083,0,33,7.2509765625E-6,40,47,76,385979,28207,13065,9631,3347,2600,1028,1075,Tag0,unknown
1500042131083,0,-122,-2.6806640625E-5,40,47,76,385979,28207,13065,9631,3347,2600,1028,1075,Tag0,unknown
1500042131083,0,-12,-2.63671875E-6,40,47,76,385979,28207,13065,9631,3347,2600,1028,1075,Tag0,unknown
1500042131083,0,274,6.0205078124999997E-5,40,47,76,385979,28207,13065,9631,3347,2600,1028,1075,Tag0,unknown
1500042131095,0,-74,-1.6259765625E-5,40,47,76,385979,28207,13065,9631,3347,2600,1028,1075,Tag0,unknown
1500042131110,0,101,2.2192382812500002E-5,40,47,76,385979,28207,13065,9631,3347,2600,1028,1075,Tag0,unknown
1500042131111,0,114,2.5048828125000003E-5,40,47,76,385979,28207,13065,9631,3347,2600,1028,1075,Tag0,unknown
1500042131112,0,-74,-1.6259765625E-5,40,47,76,385979,28207,13065,9631,3347,2600,1028,1075,Tag0,unknown
1500042131112,0,-41,-9.008789062499999E-6,40,47,76,385979,28207,13065,9631,3347,2600,1028,1075,Tag0,unknown
1500042131113,0,-87,-1.91162109375E-5,40,47,76,385979,28207,13065,9631,3347,2600,1028,1075,Tag0,unknown
1500042131113,0,-109,-2.39501953125E-5,40,47,76,385979,28207,13065,9631,3347,2600,1028,1075,Tag0,unknown
1500042131114,0,-48,-1.0546875E-5,40,47,76,385979,28207,13065,9631,3347,2600,1028,1075,Tag0,unknown
1500042131114,0,297,6.525878906250001E-5,40,47,76,385979,28207,13065,9631,3347,2600,1028,1075,Tag0,unknown
1500042131115,0,342,7.5146484375E-5,40,47,76,385979,28207,13065,9631,3347,2600,1028,1075,Tag0,unknown
1500042131115,0,283,6.218261718750001E-5,40,47,76,385979,28207,13065,9631,3347,2600,1028,1075,Tag0,unknown
1500042131116,0,-56,-1.23046875E-5,40,47,76,385979,28207,13065,9631,3347,2600,1028,1075,Tag0,unknown
1500042131116,0,-63,-1.38427734375E-5,40,47,76,385979,28207,13065,9631,3347,2600,1028,1075,Tag0,unknown
1500042131116,0,257,5.64697265625E-5,40,47,76,385979,28207,13065,9631,3347,2600,1028,1075,Tag0,unknown
1500042131116,0,293,6.43798828125E-5,40,47,76,385979,28207,13065,9631,3347,2600,1028,1075,Tag0,unknown
1500042131117,0,-7,-1.5380859375E-6,40,47,76,385979,28207,13065,9631,3347,2600,1028,1075,Tag0,unknown
1500042131117,0,-70,-1.5380859375E-5,40,47,76,385979,28207,13065,9631,3347,2600,1028,1075,Tag0,unknown
1500042131117,0,-61,-1.34033203125E-5,40,47,76,385979,28207,13065,9631,3347,2600,1028,1075,Tag0,unknown
1500042131117,0,260,5.712890625E-5,40,47,76,385979,28207,13065,9631,3347,2600,1028,1075,Tag0,unknown
1500042131118,0,331,7.272949218750001E-5,40,47,76,385979,28207,13065,9631,3347,2600,1028,1075,Tag0,unknown
1500042131134,0,306,6.723632812500001E-5,40,47,76,385979,28207,13065,9631,3347,2600,1028,1075,Tag0,unknown
1500042131145,0,-55,-1.20849609375E-5,40,47,76,385979,28207,13065,9631,3347,2600,1028,1075,Tag0,unknown
1500042131145,0,-119,-2.6147460937500004E-5,40,47,76,385979,28207,13065,9631,3347,2600,1028,1075,Tag0,unknown
1500042131146,0,-92,-2.021484375E-5,40,47,76,385979,28207,13065,9631,3347,2600,1028,1075,Tag0,unknown
1500042131146,0,-44,-9.66796875E-6,40,47,76,385979,28207,13065,9631,3347,2600,1028,1075,Tag0,unknown
1500042131147,0,-69,-1.51611328125E-5,40,47,76,385979,28207,13065,9631,3347,2600,1028,1075,Tag0,unknown
1500042131148,0,87,1.91162109375E-5,40,47,76,385979,28207,13065,9631,3347,2600,1028,1075,Tag0,unknown
1500042131148,0,28,6.15234375E-6,40,47,76,385979,28207,13065,9631,3347,2600,1028,1075,Tag0,unknown
1500042131148,0,68,1.4941406250000001E-5,40,47,76,385979,28207,13065,9631,3347,2600,1028,1075,Tag0,unknown
1500042131149,0,-107,-2.35107421875E-5,40,47,76,385979,28207,13065,9631,3347,2600,1028,1075,Tag0,unknown
1500042131150,0,-71,-1.56005859375E-5,40,47,76,385979,28207,13065,9631,3347,2600,1028,1075,Tag0,unknown
1500042131150,0,-111,-2.43896484375E-5,40,47,76,385979,28207,13065,9631,3347,2600,1028,1075,Tag0,unknown
1500042131151,0,108,2.3730468750000002E-5,40,47,76,385979,28207,13065,9631,3347,2600,1028,1075,Tag0,unknown
1500042131151,0,-99,-2.1752929687500003E-5,40,47,76,385979,28207,13065,9631,3347,2600,1028,1075,Tag0,unknown
1500042131151,0,257,5.64697265625E-5,40,47,76,385979,28207,13065,9631,3347,2600,1028,1075,Tag0,unknown
1500042131152,0,296,6.50390625E-5,40,47,76,385979,28207,13065,9631,3347,2600,1028,1075,Tag0,unknown
1500042131152,0,-25,-5.4931640625E-6,40,47,76,385979,28207,13065,9631,3347,2600,1028,1075,Tag0,unknown
1500042131153,0,-86,-1.8896484375000003E-5,40,47,76,385979,28207,13065,9631,3347,2600,1028,1075,Tag0,unknown
1500042131153,0,-55,-1.20849609375E-5,40,47,76,385979,28207,13065,9631,3347,2600,1028,1075,Tag0,unknown
1500042131153,0,281,6.17431640625E-5,40,47,76,385979,28207,13065,9631,3347,2600,1028,1075,Tag0,unknown
1500042131212,0,325,7.14111328125E-5,40,47,76,385979,28207,13065,9631,3347,2600,1028,1075,Tag0,unknown
1500042131233,0,262,5.7568359375E-5,40,47,76,385979,28207,13065,9631,3347,2600,1028,1075,Tag0,unknown
1500042131234,0,-88,-1.93359375E-5,40,47,76,385979,28207,13065,9631,3347,2600,1028,1075,Tag0,unknown
1500042131235,0,-128,-2.8125E-5,40,47,76,385979,28207,13065,9631,3347,2600,1028,1075,Tag0,unknown
1500042131236,0,-109,-2.39501953125E-5,40,47,76,385979,28207,13065,9631,3347,2600,1028,1075,Tag0,unknown
1500042131236,0,-101,-2.2192382812500002E-5,40,47,76,385979,28207,13065,9631,3347,2600,1028,1075,Tag0,unknown
1500042131237,0,91,1.99951171875E-5,40,47,76,385979,28207,13065,9631,3347,2600,1028,1075,Tag0,unknown
1500042131238,0,-260,-5.712890625E-5,40,47,76,385979,28207,13065,9631,3347,2600,1028,1075,Tag0,unknown
1500042131238,0,-292,-6.416015625000001E-5,40,47,76,385979,28207,13065,9631,3347,2600,1028,1075,Tag0,unknown
1500042131239,0,-258,-5.6689453125000004E-5,40,47,76,385979,28207,13065,9631,3347,2600,1028,1075,Tag0,unknown
1500042131280,0,33,7.2509765625E-6,40,47,76,385979,28207,13065,9631,3347,2600,1028,1075,Tag0,unknown
1500042131297,0,-270,-5.9326171875E-5,40,47,76,385979,28207,13065,9631,3347,2600,1028,1075,Tag0,unknown
1500042131298,0,-365,-8.02001953125E-5,40,47,76,385979,28207,13065,9631,3347,2600,1028,1075,Tag0,unknown
1500042131299,0,-140,-3.076171875E-5,40,47,76,385979,28207,13065,9631,3347,2600,1028,1075,Tag0,unknown
1500042131300,0,-350,-7.6904296875E-5,40,47,76,385979,28207,13065,9631,3347,2600,1028,1075,Tag0,unknown
1500042131301,0,-299,-6.56982421875E-5,40,47,76,385979,28207,13065,9631,3347,2600,1028,1075,Tag0,unknown
1500042131301,0,-307,-6.74560546875E-5,40,47,76,385979,28207,13065,9631,3347,2600,1028,1075,Tag0,unknown
1500042131302,0,-349,-7.668457031250001E-5,40,47,76,385979,28207,13065,9631,3347,2600,1028,1075,Tag0,unknown
1500042131303,0,-345,-7.58056640625E-5,40,47,76,385979,28207,13065,9631,3347,2600,1028,1075,Tag0,unknown
1500042131304,0,-291,-6.39404296875E-5,40,47,76,385979,28207,13065,9631,3347,2600,1028,1075,Tag0,unknown
1500042131348,0,28,6.15234375E-6,40,47,76,385979,28207,13065,9631,3347,2600,1028,1075,Tag0,unknown
1500042131366,0,26,5.712890625E-6,40,47,76,385979,28207,13065,9631,3347,2600,1028,1075,Tag0,unknown
1500042131367,0,-294,-6.4599609375E-5,40,47,76,385979,28207,13065,9631,3347,2600,1028,1075,Tag0,unknown
1500042131368,0,-311,-6.833496093750001E-5,40,47,76,385979,28207,13065,9631,3347,2600,1028,1075,Tag0,unknown
1500042131368,0,11,2.4169921875E-6,40,47,76,385979,28207,13065,9631,3347,2600,1028,1075,Tag0,unknown
1500042131370,0,81,1.77978515625E-5,40,47,44,385979,28207,13065,9631,3347,2600,1028,1075,Tag0,unknown
1500042131371,0,77,1.69189453125E-5,40,47,44,385979,28207,13065,9631,3347,2600,1028,1075,Tag0,unknown
1500042131371,0,13,2.8564453125E-6,40,47,44,385979,28207,13065,9631,3347,2600,1028,1075,Tag0,unknown
1500042131372,0,-276,-6.064453125E-5,40,47,44,385979,28207,13065,9631,3347,2600,1028,1075,Tag0,unknown
1500042131377,0,19,4.1748046875E-6,40,47,44,385979,28207,13065,9631,3347,2600,1028,1075,Tag0,unknown
1500042131378,0,89,1.95556640625E-5,40,47,44,385979,28207,13065,9631,3347,2600,1028,1075,Tag0,unknown
1500042131378,0,119,2.6147460937500004E-5,40,47,44,385979,28207,13065,9631,3347,2600,1028,1075,Tag0,unknown
1500042131379,0,57,1.2524414062500001E-5,40,47,44,385979,28207,13065,9631,3347,2600,1028,1075,Tag0,unknown
1500042131379,0,-260,-5.712890625E-5,40,47,44,385979,28207,13065,9631,3347,2600,1028,1075,Tag0,unknown
1500042131379,0,8,1.7578125E-6,40,47,44,385979,28207,13065,9631,3347,2600,1028,1075,Tag0,unknown
1500042131380,0,85,1.86767578125E-5,40,47,44,385979,28207,13065,9631,3347,2600,1028,1075,Tag0,unknown
1500042131380,0,122,2.6806640625E-5,40,47,44,385979,28207,13065,9631,3347,2600,1028,1075,Tag0,unknown
1500042131381,0,58,1.2744140625E-5,40,47,44,385979,28207,13065,9631,3347,2600,1028,1075,Tag0,unknown
1500042131381,0,-283,-6.218261718750001E-5,40,47,44,385979,28207,13065,9631,3347,2600,1028,1075,Tag0,unknown
1500042131382,0,-294,-6.4599609375E-5,40,47,44,385979,28207,13065,9631,3347,2600,1028,1075,Tag0,unknown
1500042131383,0,21,4.614257812500001E-6,40,47,44,385979,28207,13065,9631,3347,2600,1028,1075,Tag0,unknown
1500042131383,0,81,1.77978515625E-5,40,47,44,385979,28207,13065,9631,3347,2600,1028,1075,Tag0,unknown
1500042131384,0,35,7.6904296875E-6,40,47,44,385979,28207,13065,9631,3347,2600,1028,1075,Tag0,unknown
1500042131384,0,-326,-7.163085937500001E-5,40,47,44,385979,28207,13065,9631,3347,2600,1028,1075,Tag0,unknown
1500042131385,0,-354,-7.778320312500001E-5,40,47,44,385979,28207,13065,9631,3347,2600,1028,1075,Tag0,unknown
1500042131386,0,-275,-6.04248046875E-5,40,47,44,385979,28207,13065,9631,3347,2600,1028,1075,Tag0,unknown
1500042131386,0,64,1.40625E-5,40,47,44,385979,28207,13065,9631,3347,2600,1028,1075,Tag0,unknown
1500042131387,0,68,1.4941406250000001E-5,40,47,44,385979,28207,13065,9631,3347,2600,1028,1075,Tag0,unknown
1500042131387,0,20,4.39453125E-6,40,47,44,385979,28207,13065,9631,3347,2600,1028,1075,Tag0,unknown
1500042131388,0,19,4.1748046875E-6,40,47,44,385979,28207,13065,9631,3347,2600,1028,1075,Tag0,unknown
1500042131388,0,69,1.51611328125E-5,40,47,44,385979,28207,13065,9631,3347,2600,1028,1075,Tag0,unknown
1500042131389,0,124,2.724609375E-5,40,47,44,385979,28207,13065,9631,3347,2600,1028,1075,Tag0,unknown
1500042131389,0,97,2.13134765625E-5,40,47,44,385979,28207,13065,9631,3347,2600,1028,1075,Tag0,unknown
1500042131390,0,-263,-5.7788085937500005E-5,40,47,44,385979,28207,13065,9631,3347,2600,1028,1075,Tag0,unknown
1500042131390,0,-313,-6.87744140625E-5,40,47,44,385979,28207,13065,9631,3347,2600,1028,1075,Tag0,unknown
1500042131395,0,-258,-5.6689453125000004E-5,40,47,44,385979,28207,13065,9631,3347,2600,1028,1075,Tag0,unknown
1500042131396,0,68,1.4941406250000001E-5,40,47,44,385979,28207,13065,9631,3347,2600,1028,1075,Tag0,unknown
1500042131396,0,59,1.29638671875E-5,40,47,44,385979,28207,13065,9631,3347,2600,1028,1075,Tag0,unknown
1500042131397,0,-266,-5.8447265625E-5,40,47,44,385979,28207,13065,9631,3347,2600,1028,1075,Tag0,unknown
1500042131397,0,-286,-6.2841796875E-5,40,47,44,385979,28207,13065,9631,3347,2600,1028,1075,Tag0,unknown
1500042131398,0,36,7.91015625E-6,40,47,44,385979,28207,13065,9631,3347,2600,1028,1075,Tag0,unknown
1500042131398,0,-120,-2.63671875E-5,40,47,44,385979,28207,13065,9631,3347,2600,1028,1075,Tag0,unknown
1500042131399,0,-86,-1.8896484375000003E-5,40,47,44,385979,28207,13065,9631,3347,2600,1028,1075,Tag0,unknown
1500042131399,0,85,1.86767578125E-5,40,47,44,385979,28207,13065,9631,3347,2600,1028,1075,Tag0,unknown
1500042131400,0,-270,-5.9326171875E-5,40,47,44,385979,28207,13065,9631,3347,2600,1028,1075,Tag0,unknown
1500042131400,0,-275,-6.04248046875E-5,40,47,44,385979,28207,13065,9631,3347,2600,1028,1075,Tag0,unknown
1500042131401,0,36,7.91015625E-6,40,47,44,385979,28207,13065,9631,3347,2600,1028,1075,Tag0,unknown
1500042131401,0,33,7.2509765625E-6,40,47,44,385979,28207,13065,9631,3347,2600,1028,1075,Tag0,unknown
1500042131401,0,-317,-6.96533203125E-5,40,47,44,385979,28207,13065,9631,3347,2600,1028,1075,Tag0,unknown
1500042131402,0,-134,-2.9443359375000003E-5,40,47,44,385979,28207,13065,9631,3347,2600,1028,1075,Tag0,unknown
1500042131402,0,-365,-8.02001953125E-5,40,47,44,385979,28207,13065,9631,3347,2600,1028,1075,Tag0,unknown
1500042131403,0,-305,-6.70166015625E-5,40,47,44,385979,28207,13065,9631,3347,2600,1028,1075,Tag0,unknown
1500042131403,0,-282,-6.1962890625E-5,40,47,44,385979,28207,13065,9631,3347,2600,1028,1075,Tag0,unknown
1500042131403,0,-363,-7.97607421875E-5,40,47,44,385979,28207,13065,9631,3347,2600,1028,1075,Tag0,unknown
1500042131403,0,-199,-4.3725585937499995E-5,40,47,44,385979,28207,13065,9631,3347,2600,1028,1075,Tag0,unknown
