timestampMs,poorSignal,eegRawValue,eegRawValueVolts,attention,meditation,blinkStrength,delta,theta,alphaLow,alphaHigh,betaLow,betaHigh,gammaLow,gammaMid,tagEvent,location
1500041893087,0,32,7.03125E-6,57,57,46,198630,28283,19634,8372,18433,4114,2162,1562,Tag0,unknown
1500041893087,0,56,1.23046875E-5,57,57,46,198630,28283,19634,8372,18433,4114,2162,1562,Tag0,unknown
1500041893088,0,103,2.26318359375E-5,57,57,46,198630,28283,19634,8372,18433,4114,2162,1562,Tag0,unknown
1500041893088,0,-125,-2.74658203125E-5,57,57,46,198630,28283,19634,8372,18433,4114,2162,1562,Tag0,unknown
1500041893089,0,100,2.197265625E-5,57,57,46,198630,28283,19634,8372,18433,4114,2162,1562,Tag0,unknown
1500041893089,0,66,1.4501953125E-5,57,57,46,198630,28283,19634,8372,18433,4114,2162,1562,Tag0,unknown
1500041893090,0,76,1.669921875E-5,57,57,46,198630,28283,19634,8372,18433,4114,2162,1562,Tag0,unknown
1500041893090,0,123,2.70263671875E-5,57,57,46,198630,28283,19634,8372,18433,4114,2162,1562,Tag0,unknown
1500041893091,0,-105,-2.30712890625E-5,57,57,46,198630,28283,19634,8372,18433,4114,2162,1562,Tag0,unknown
1500041893091,0,122,2.6806640625E-5,57,57,46,198630,28283,19634,8372,18433,4114,2162,1562,Tag0,unknown
1500041893092,0,88,1.93359375E-5,57,57,46,198630,28283,19634,8372,18433,4114,2162,1562,Tag0,unknown
1500041893093,0,102,2.2412109374999998E-5,57,57,46,198630,28283,19634,8372,18433,4114,2162,1562,Tag0,unknown
1500041893093,0,-108,-2.3730468750000002E-5,57,57,46,198630,28283,19634,8372,18433,4114,2162,1562,Tag0,unknown
1500041893093,0,-89,-1.95556640625E-5,57,57,46,198630,28283,19634,8372,18433,4114,2162,1562,Tag0,unknown
1500041893094,0,-125,-2.74658203125E-5,57,57,46,198630,28283,19634,8372,18433,4114,2162,1562,Tag0,unknown
1500041893094,0,80,1.7578125E-5,57,57,46,198630,28283,19634,8372,18433,4114,2162,1562,Tag0,unknown
1500041893095,0,72,1.58203125E-5,57,57,46,198630,28283,19634,8372,18433,4114,2162,1562,Tag0,unknown
1500041893095,0,117,2.5708007812499998E-5,57,57,46,198630,28283,19634,8372,18433,4114,2162,1562,Tag0,unknown
1500041893095,0,-101,-2.2192382812500002E-5,57,57,46,198630,28283,19634,8372,18433,4114,2162,1562,Tag0,unknown
1500041893096,0,-111,-2.43896484375E-5,57,57,46,198630,28283,19634,8372,18433,4114,2162,1562,Tag0,unknown
1500041893096,0,99,2.1752929687500003E-5,57,57,46,198630,28283,19634,8372,18433,4114,2162,1562,Tag0,unknown
1500041893096,0,87,1.91162109375E-5,57,57,46,198630,28283,19634,8372,18433,4114,2162,1562,Tag0,unknown
1500041893096,0,124,2.724609375E-5,57,57,46,198630,28283,19634,8372,18433,4114,2162,1562,Tag0,unknown
1500041893097,0,-85,-1.86767578125E-5,57,57,46,198630,28283,19634,8372,18433,4114,2162,1562,Tag0,unknown
1500041893097,0,-92,-2.021484375E-5,57,57,46,198630,28283,19634,8372,18433,4114,2162,1562,Tag0,unknown
1500041893098,0,112,2.4609375E-5,57,57,46,198630,28283,19634,8372,18433,4114,2162,1562,Tag0,unknown
1500041893099,0,82,1.8017578124999998E-5,57,57,46,198630,28283,19634,8372,18433,4114,2162,1562,Tag0,unknown
1500041893099,0,96,2.109375E-5,57,57,46,198630,28283,19634,8372,18433,4114,2162,1562,Tag0,unknown
1500041893099,0,124,2.724609375E-5,57,57,46,198630,28283,19634,8372,18433,4114,2162,1562,Tag0,unknown
1500041893099,0,-128,-2.8125E-5,57,57,46,198630,28283,19634,8372,18433,4114,2162,1562,Tag0,unknown
1500041893100,0,92,2.021484375E-5,57,57,46,198630,28283,19634,8372,18433,4114,2162,1562,Tag0,unknown
1500041893100,0,68,1.4941406250000001E-5,57,57,46,198630,28283,19634,8372,18433,4114,2162,1562,Tag0,unknown
1500041893103,0,64,1.40625E-5,57,57,46,198630,28283,19634,8372,18433,4114,2162,1562,Tag0,unknown
1500041893104,0,70,1.5380859375E-5,57,57,46,198630,28283,19634,8372,18433,4114,2162,1562,Tag0,unknown
1500041893104,0,71,1.56005859375E-5,57,57,46,198630,28283,19634,8372,18433,4114,2162,1562,Tag0,unknown
1500041893105,0,50,1.0986328125E-5,57,57,46,198630,28283,19634,8372,18433,4114,2162,1562,Tag0,unknown
1500041893105,0,44,9.66796875E-6,57,57,46,198630,28283,19634,8372,18433,4114,2162,1562,Tag0,unknown
1500041893106,0,81,1.77978515625E-5,57,57,46,198630,28283,19634,8372,18433,4114,2162,1562,Tag0,unknown
1500041893106,0,125,2.74658203125E-5,57,57,46,198630,28283,19634,8372,18433,4114,2162,1562,Tag0,unknown
1500041893107,0,-111,-2.43896484375E-5,57,57,46,198630,28283,19634,8372,18433,4114,2162,1562,Tag0,unknown
1500041893121,0,119,2.6147460937500004E-5,57,57,46,198630,28283,19634,8372,18433,4114,2162,1562,Tag0,unknown
1500041893134,0,86,1.8896484375000003E-5,57,57,46,198630,28283,19634,8372,18433,4114,2162,1562,Tag0,unknown
1500041893134,0,90,1.9775390625E-5,57,57,46,198630,28283,19634,8372,18433,4114,2162,1562,Tag0,unknown
1500041893135,0,124,2.724609375E-5,57,57,46,198630,28283,19634,8372,18433,4114,2162,1562,Tag0,unknown
1500041893135,0,-118,-2.5927734375E-5,57,57,46,198630,28283,19634,8372,18433,4114,2162,1562,Tag0,unknown
1500041893136,0,92,2.021484375E-5,57,57,46,198630,28283,19634,8372,18433,4114,2162,1562,Tag0,unknown
1500041893136,0,44,9.66796875E-6,57,57,46,198630,28283,19634,8372,18433,4114,2162,1562,Tag0,unknown
1500041893137,0,58,1.2744140625E-5,57,57,46,198630,28283,19634,8372,18433,4114,2162,1562,Tag0,unknown
1500041893137,0,115,2.52685546875E-5,57,57,46,198630,28283,19634,8372,18433,4114,2162,1562,Tag0,unknown
1500041893138,0,-125,-2.74658203125E-5,57,57,46,198630,28283,19634,8372,18433,4114,2162,1562,Tag0,unknown
1500041893138,0,92,2.021484375E-5,57,57,46,198630,28283,19634,8372,18433,4114,2162,1562,Tag0,unknown
1500041893139,0,51,1.1206054687499999E-5,57,57,46,198630,28283,19634,8372,18433,4114,2162,1562,Tag0,unknown
1500041893139,0,49,1.07666015625E-5,57,57,46,198630,28283,19634,8372,18433,4114,2162,1562,Tag0,unknown
1500041893139,0,81,1.77978515625E-5,57,57,46,198630,28283,19634,8372,18433,4114,2162,1562,Tag0,unknown
1500041893139,0,105,2.30712890625E-5,57,57,46,198630,28283,19634,8372,18433,4114,2162,1562,Tag0,unknown
1500041893140,0,86,1.8896484375000003E-5,57,57,46,198630,28283,19634,8372,18433,4114,2162,1562,Tag0,unknown
1500041893140,0,37,8.1298828125E-6,57,57,46,198630,28283,19634,8372,18433,4114,2162,1562,Tag0,unknown
1500041893140,0,25,5.4931640625E-6,57,57,46,198630,28283,19634,8372,18433,4114,2162,1562,Tag0,unknown
1500041893140,0,69,1.51611328125E-5,57,57,46,198630,28283,19634,8372,18433,4114,2162,1562,Tag0,unknown
1500041893141,0,115,2.52685546875E-5,57,57,46,198630,28283,19634,8372,18433,4114,2162,1562,Tag0,unknown
1500041893156,0,104,2.28515625E-5,57,57,46,198630,28283,19634,8372,18433,4114,2162,1562,Tag0,unknown
1500041893168,0,57,1.2524414062500001E-5,57,57,46,198630,28283,19634,8372,18433,4114,2162,1562,Tag0,unknown
1500041893169,0,41,9.008789062499999E-6,57,57,46,198630,28283,19634,8372,18433,4114,2162,1562,Tag0,unknown
1500041893169,0,75,1.64794921875E-5,57,57,46,198630,28283,19634,8372,18433,4114,2162,1562,Tag0,unknown
1500041893170,0,124,2.724609375E-5,57,57,46,198630,28283,19634,8372,18433,4114,2162,1562,Tag0,unknown
1500041893171,0,-122,-2.6806640625E-5,57,57,46,198630,28283,19634,8372,18433,4114,2162,1562,Tag0,unknown
1500041893172,0,74,1.6259765625E-5,57,57,46,198630,28283,19634,8372,18433,4114,2162,1562,Tag0,unknown
1500041893172,0,24,5.2734375E-6,57,57,46,198630,28283,19634,8372,18433,4114,2162,1562,Tag0,unknown
1500041893173,0,40,8.7890625E-6,57,57,46,198630,28283,19634,8372,18433,4114,2162,1562,Tag0,unknown
1500041893173,0,92,2.021484375E-5,57,57,46,198630,28283,19634,8372,18433,4114,2162,1562,Tag0,unknown
1500041893174,0,107,2.35107421875E-5,57,57,46,198630,28283,19634,8372,18433,4114,2162,1562,Tag0,unknown
1500041893174,0,60,1.318359375E-5,57,57,46,198630,28283,19634,8372,18433,4114,2162,1562,Tag0,unknown
1500041893174,0,19,4.1748046875E-6,57,57,46,198630,28283,19634,8372,18433,4114,2162,1562,Tag0,unknown
1500041893174,0,36,7.91015625E-6,57,57,46,198630,28283,19634,8372,18433,4114,2162,1562,Tag0,unknown
1500041893174,0,86,1.8896484375000003E-5,57,57,46,198630,28283,19634,8372,18433,4114,2162,1562,Tag0,unknown
1500041893175,0,108,2.3730468750000002E-5,57,57,46,198630,28283,19634,8372,18433,4114,2162,1562,Tag0,unknown
1500041893176,0,56,1.23046875E-5,57,57,46,198630,28283,19634,8372,18433,4114,2162,1562,Tag0,unknown
1500041893177,0,-266,-5.8447265625E-5,57,57,46,198630,28283,19634,8372,18433,4114,2162,1562,Tag0,unknown
1500041893177,0,-276,-6.064453125E-5,57,57,46,198630,28283,19634,8372,18433,4114,2162,1562,Tag0,unknown
1500041893177,0,26,5.712890625E-6,57,57,46,198630,28283,19634,8372,18433,4114,2162,1562,Tag0,unknown
1500041893193,0,53,1.1645507812500002E-5,57,57,46,198630,28283,19634,8372,18433,4114,2162,1562,Tag0,unknown
1500041893200,0,19,4.1748046875E-6,57,57,46,198630,28283,19634,8372,18433,4114,2162,1562,Tag0,unknown
1500041893200,0,-265,-5.82275390625E-5,57,57,46,198630,28283,19634,8372,18433,4114,2162,1562,Tag0,unknown
1500041893201,0,18,3.955078125E-6,57,57,46,198630,28283,19634,8372,18433,4114,2162,1562,Tag0,unknown
1500041893201,0,88,1.93359375E-5,57,57,46,198630,28283,19634,8372,18433,4114,2162,1562,Tag0,unknown
1500041893201,0,-117,-2.5708007812499998E-5,57,57,46,198630,28283,19634,8372,18433,4114,2162,1562,Tag0,unknown
1500041893201,0,123,2.70263671875E-5,57,57,46,198630,28283,19634,8372,18433,4114,2162,1562,Tag0,unknown
1500041893201,0,82,1.8017578124999998E-5,57,57,46,198630,28283,19634,8372,18433,4114,2162,1562,Tag0,unknown
1500041893202,0,80,1.7578125E-5,57,57,46,198630,28283,19634,8372,18433,4114,2162,1562,Tag0,unknown
1500041893202,0,120,2.63671875E-5,57,57,46,198630,28283,19634,8372,18433,4114,2162,1562,Tag0,unknown
1500041893202,0,-108,-2.3730468750000002E-5,57,57,46,198630,28283,19634,8372,18433,4114,2162,1562,Tag0,unknown
1500041893202,0,123,2.70263671875E-5,57,57,46,198630,28283,19634,8372,18433,4114,2162,1562,Tag0,unknown
1500041893202,0,88,1.93359375E-5,57,57,46,198630,28283,19634,8372,18433,4114,2162,1562,Tag0,unknown
1500041893202,0,84,1.8457031250000004E-5,57,57,46,198630,28283,19634,8372,18433,4114,2162,1562,Tag0,unknown
1500041893203,0,112,2.4609375E-5,57,57,46,198630,28283,19634,8372,18433,4114,2162,1562,Tag0,unknown
1500041893203,0,-111,-2.43896484375E-5,57,57,46,198630,28283,19634,8372,18433,4114,2162,1562,Tag0,unknown
1500041893203,0,121,2.6586914062500003E-5,57,57,46,198630,28283,19634,8372,18433,4114,2162,1562,Tag0,unknown
1500041893203,0,54,1.1865234375000001E-5,57,57,46,198630,28283,19634,8372,18433,4114,2162,1562,Tag0,unknown
1500041893203,0,25,5.4931640625E-6,57,57,46,198630,28283,19634,8372,18433,4114,2162,1562,Tag0,unknown
1500041893204,0,57,1.2524414062500001E-5,57,57,46,198630,28283,19634,8372,18433,4114,2162,1562,Tag0,unknown
1500041893229,0,97,2.13134765625E-5,57,57,46,198630,28283,19634,8372,18433,4114,2162,1562,Tag0,unknown
1500041893229,0,86,1.8896484375000003E-5,57,57,46,198630,28283,19634,8372,18433,4114,2162,1562,Tag0,unknown
1500041893234,0,37,8.1298828125E-6,57,57,46,198630,28283,19634,8372,18433,4114,2162,1562,Tag0,unknown
1500041893234,0,10,2.197265625E-6,57,57,46,198630,28283,19634,8372,18433,4114,2162,1562,Tag0,unknown
1500041893234,0,26,5.712890625E-6,57,57,46,198630,28283,19634,8372,18433,4114,2162,1562,Tag0,unknown
1500041893235,0,54,1.1865234375000001E-5,57,57,46,198630,28283,19634,8372,18433,4114,2162,1562,Tag0,unknown
1500041893235,0,53,1.1645507812500002E-5,57,57,46,198630,28283,19634,8372,18433,4114,2162,1562,Tag0,unknown
1500041893235,0,18,3.955078125E-6,57,57,46,198630,28283,19634,8372,18433,4114,2162,1562,Tag0,unknown
1500041893235,0,-259,-5.69091796875E-5,57,57,46,198630,28283,19634,8372,18433,4114,2162,1562,Tag0,unknown
1500041893236,0,8,1.7578125E-6,57,57,46,198630,28283,19634,8372,18433,4114,2162,1562,Tag0,unknown
1500041893236,0,40,8.7890625E-6,57,57,46,198630,28283,19634,8372,18433,4114,2162,1562,Tag0,unknown
1500041893236,0,48,1.0546875E-5,57,57,46,198630,28283,19634,8372,18433,4114,2162,1562,Tag0,unknown
1500041893236,0,7,1.5380859375E-6,57,57,46,198630,28283,19634,8372,18433,4114,2162,1562,Tag0,unknown
1500041893237,0,-282,-6.1962890625E-5,57,57,46,198630,28283,19634,8372,18433,4114,2162,1562,Tag0,unknown
1500041893237,0,-266,-5.8447265625E-5,57,57,46,198630,28283,19634,8372,18433,4114,2162,1562,Tag0,unknown
1500041893237,0,25,5.4931640625E-6,57,57,46,198630,28283,19634,8372,18433,4114,2162,1562,Tag0,unknown
1500041893238,0,40,8.7890625E-6,57,57,46,198630,28283,19634,8372,18433,4114,2162,1562,Tag0,unknown
1500041893238,0,7,1.5380859375E-6,57,57,46,198630,28283,19634,8372,18433,4114,2162,1562,Tag0,unknown
1500041893238,0,-283,-6.218261718750001E-5,57,57,46,198630,28283,19634,8372,18433,4114,2162,1562,Tag0,unknown
1500041893238,0,-279,-6.13037109375E-5,57,57,46,198630,28283,19634,8372,18433,4114,2162,1562,Tag0,unknown
1500041893266,0,13,2.8564453125E-6,57,57,46,198630,28283,19634,8372,18433,4114,2162,1562,Tag0,unknown
1500041893286,0,23,5.0537109375E-6,57,57,46,198630,28283,19634,8372,18433,4114,2162,1562,Tag0,unknown
1500041893286,0,-270,-5.9326171875E-5,57,57,46,198630,28283,19634,8372,18433,4114,2162,1562,Tag0,unknown
1500041893287,0,-310,-6.8115234375E-5,57,57,46,198630,28283,19634,8372,18433,4114,2162,1562,Tag0,unknown
1500041893287,0,-294,-6.4599609375E-5,57,57,46,198630,28283,19634,8372,18433,4114,2162,1562,Tag0,unknown
1500041893288,0,-259,-5.69091796875E-5,57,57,46,198630,28283,19634,8372,18433,4114,2162,1562,Tag0,unknown
1500041893288,0,12,2.63671875E-6,57,57,46,198630,28283,19634,8372,18433,4114,2162,1562,Tag0,unknown
1500041893289,0,-268,-5.8886718750000006E-5,57,57,46,198630,28283,19634,8372,18433,4114,2162,1562,Tag0,unknown
1500041893289,0,-305,-6.70166015625E-5,57,57,46,198630,28283,19634,8372,18433,4114,2162,1562,Tag0,unknown
1500041893290,0,-299,-6.56982421875E-5,57,57,46,198630,28283,19634,8372,18433,4114,2162,1562,Tag0,unknown
1500041893290,0,0,0.0,57,57,46,198630,28283,19634,8372,18433,4114,2162,1562,Tag0,unknown
1500041893291,0,45,9.8876953125E-6,57,57,46,198630,28283,19634,8372,18433,4114,2162,1562,Tag0,unknown
1500041893291,0,52,1.142578125E-5,57,57,46,198630,28283,19634,8372,18433,4114,2162,1562,Tag0,unknown
1500041893292,0,19,4.1748046875E-6,57,57,46,198630,28283,19634,8372,18433,4114,2162,1562,Tag0,unknown
1500041893292,0,6,1.318359375E-6,57,57,46,198630,28283,19634,8372,18433,4114,2162,1562,Tag0,unknown
1500041893293,0,37,8.1298828125E-6,57,57,46,198630,28283,19634,8372,18433,4114,2162,1562,Tag0,unknown
1500041893293,0,85,1.86767578125E-5,57,57,46,198630,28283,19634,8372,18433,4114,2162,1562,Tag0,unknown
1500041893293,0,102,2.2412109374999998E-5,57,57,46,198630,28283,19634,8372,18433,4114,2162,1562,Tag0,unknown
1500041893294,0,65,1.42822265625E-5,57,57,46,198630,28283,19634,8372,18433,4114,2162,1562,Tag0,unknown
1500041893294,0,34,7.4707031250000005E-6,57,57,46,198630,28283,19634,8372,18433,4114,2162,1562,Tag0,unknown
1500041893303,0,43,9.448242187500001E-6,57,57,46,198630,28283,19634,8372,18433,4114,2162,1562,Tag0,unknown
1500041893320,0,70,1.5380859375E-5,57,57,46,198630,28283,19634,8372,18433,4114,2162,1562,Tag0,unknown
1500041893320,0,69,1.51611328125E-5,57,57,46,198630,28283,19634,8372,18433,4114,2162,1562,Tag0,unknown
1500041893321,0,37,8.1298828125E-6,57,57,46,198630,28283,19634,8372,18433,4114,2162,1562,Tag0,unknown
1500041893321,0,21,4.614257812500001E-6,57,57,46,198630,28283,19634,8372,18433,4114,2162,1562,Tag0,unknown
1500041893322,0,52,1.142578125E-5,57,57,46,198630,28283,19634,8372,18433,4114,2162,1562,Tag0,unknown
1500041893322,0,98,2.1533203125E-5,57,57,46,198630,28283,19634,8372,18433,4114,2162,1562,Tag0,unknown
1500041893323,0,119,2.6147460937500004E-5,57,57,46,198630,28283,19634,8372,18433,4114,2162,1562,Tag0,unknown
1500041893323,0,84,1.8457031250000004E-5,57,57,46,198630,28283,19634,8372,18433,4114,2162,1562,Tag0,unknown
1500041893324,0,43,9.448242187500001E-6,57,57,46,198630,28283,19634,8372,18433,4114,2162,1562,Tag0,unknown
1500041893324,0,58,1.2744140625E-5,57,57,46,198630,28283,19634,8372,18433,4114,2162,1562,Tag0,unknown
1500041893325,0,108,2.3730468750000002E-5,57,57,46,198630,28283,19634,8372,18433,4114,2162,1562,Tag0,unknown
1500041893325,0,-128,-2.8125E-5,57,57,46,198630,28283,19634,8372,18433,4114,2162,1562,Tag0,unknown
1500041893326,0,84,1.8457031250000004E-5,57,57,46,198630,28283,19634,8372,18433,4114,2162,1562,Tag0,unknown
1500041893326,0,39,8.5693359375E-6,57,57,46,198630,28283,19634,8372,18433,4114,2162,1562,Tag0,unknown
1500041893326,0,40,8.7890625E-6,57,57,46,198630,28283,19634,8372,18433,4114,2162,1562,Tag0,unknown
1500041893327,0,68,1.4941406250000001E-5,57,57,46,198630,28283,19634,8372,18433,4114,2162,1562,Tag0,unknown
1500041893327,0,91,1.99951171875E-5,57,57,46,198630,28283,19634,8372,18433,4114,2162,1562,Tag0,unknown
1500041893328,0,82,1.8017578124999998E-5,57,57,46,198630,28283,19634,8372,18433,4114,2162,1562,Tag0,unknown
1500041893328,0,57,1.2524414062500001E-5,57,57,46,198630,28283,19634,8372,18433,4114,2162,1562,Tag0,unknown
1500041893340,0,65,1.42822265625E-5,57,57,46,198630,28283,19634,8372,18433,4114,2162,1562,Tag0,unknown
1500041893353,0,106,2.3291015625000003E-5,57,57,46,198630,28283,19634,8372,18433,4114,2162,1562,Tag0,unknown
1500041893354,0,-115,-2.52685546875E-5,57,57,46,198630,28283,19634,8372,18433,4114,2162,1562,Tag0,unknown
1500041893354,0,-127,-2.79052734375E-5,57,57,46,198630,28283,19634,8372,18433,4114,2162,1562,Tag0,unknown
1500041893355,0,88,1.93359375E-5,57,57,46,198630,28283,19634,8372,18433,4114,2162,1562,Tag0,unknown
1500041893355,0,81,1.77978515625E-5,57,57,46,198630,28283,19634,8372,18433,4114,2162,1562,Tag0,unknown
1500041893356,0,106,2.3291015625000003E-5,57,57,46,198630,28283,19634,8372,18433,4114,2162,1562,Tag0,unknown
1500041893356,0,115,2.52685546875E-5,57,57,46,198630,28283,19634,8372,18433,4114,2162,1562,Tag0,unknown
1500041893357,0,67,1.4721679687500002E-5,57,57,46,198630,28283,19634,8372,18433,4114,2162,1562,Tag0,unknown
1500041893357,0,16,3.515625E-6,57,57,46,198630,28283,19634,8372,18433,4114,2162,1562,Tag0,unknown
1500041893358,0,6,1.318359375E-6,57,57,46,198630,28283,19634,8372,18433,4114,2162,1562,Tag0,unknown
1500041893358,0,44,9.66796875E-6,57,57,46,198630,28283,19634,8372,18433,4114,2162,1562,Tag0,unknown
1500041893359,0,75,1.64794921875E-5,57,57,46,198630,28283,19634,8372,18433,4114,2162,1562,Tag0,unknown
1500041893359,0,52,1.142578125E-5,57,57,46,198630,28283,19634,8372,18433,4114,2162,1562,Tag0,unknown
1500041893359,0,-260,-5.712890625E-5,57,57,46,198630,28283,19634,8372,18433,4114,2162,1562,Tag0,unknown
1500041893360,0,-267,-5.86669921875E-5,57,57,46,198630,28283,19634,8372,18433,4114,2162,1562,Tag0,unknown
1500041893360,0,20,4.39453125E-6,57,57,46,198630,28283,19634,8372,18433,4114,2162,1562,Tag0,unknown
1500041893360,0,70,1.5380859375E-5,57,57,46,198630,28283,19634,8372,18433,4114,2162,1562,Tag0,unknown
1500041893360,0,105,2.30712890625E-5,57,57,46,198630,28283,19634,8372,18433,4114,2162,1562,Tag0,unknown
1500041893360,0,82,1.8017578124999998E-5,57,57,46,198630,28283,19634,8372,18433,4114,2162,1562,Tag0,unknown
1500041893380,0,39,8.5693359375E-6,57,57,46,198630,28283,19634,8372,18433,4114,2162,1562,Tag0,unknown
1500041893387,0,28,6.15234375E-6,57,57,46,198630,28283,19634,8372,18433,4114,2162,1562,Tag0,unknown
1500041893388,0,50,1.0986328125E-5,57,57,46,198630,28283,19634,8372,18433,4114,2162,1562,Tag0,unknown
1500041893388,0,37,8.1298828125E-6,57,57,46,198630,28283,19634,8372,18433,4114,2162,1562,Tag0,unknown
1500041893389,0,-284,-6.240234375E-5,57,57,46,198630,28283,19634,8372,18433,4114,2162,1562,Tag0,unknown
1500041893389,0,-355,-7.80029296875E-5,57,57,46,198630,28283,19634,8372,18433,4114,2162,1562,Tag0,unknown
1500041893390,0,-345,-7.58056640625E-5,57,57,46,198630,28283,19634,8372,18433,4114,2162,1562,Tag0,unknown
1500041893390,0,-281,-6.17431640625E-5,57,57,46,198630,28283,19634,8372,18433,4114,2162,1562,Tag0,unknown
1500041893390,0,40,8.7890625E-6,57,57,46,198630,28283,19634,8372,18433,4114,2162,1562,Tag0,unknown
1500041893391,0,36,7.91015625E-6,57,57,46,198630,28283,19634,8372,18433,4114,2162,1562,Tag0,unknown
1500041893391,0,-311,-6.833496093750001E-5,57,57,46,198630,28283,19634,8372,18433,4114,2162,1562,Tag0,unknown
1500041893392,0,-135,-2.96630859375E-5,57,57,46,198630,28283,19634,8372,18433,4114,2162,1562,Tag0,unknown
1500041893392,0,-166,-3.6474609375E-5,57,57,46,198630,28283,19634,8372,18433,4114,2162,1562,Tag0,unknown
1500041893393,0,-173,-3.80126953125E-5,57,57,46,198630,28283,19634,8372,18433,4114,2162,1562,Tag0,unknown
1500041893393,0,-194,-4.2626953125E-5,57,57,46,198630,28283,19634,8372,18433,4114,2162,1562,Tag0,unknown
1500041893393,0,-174,-3.8232421875E-5,57,57,46,198630,28283,19634,8372,18433,4114,2162,1562,Tag0,unknown
1500041893393,0,-361,-7.93212890625E-5,57,57,46,198630,28283,19634,8372,18433,4114,2162,1562,Tag0,unknown
1500041893394,0,-294,-6.4599609375E-5,57,57,46,198630,28283,19634,8372,18433,4114,2162,1562,Tag0,unknown
1500041893394,0,6,1.318359375E-6,57,57,46,198630,28283,19634,8372,18433,4114,2162,1562,Tag0,unknown
1500041893394,0,11,2.4169921875E-6,57,57,46,198630,28283,19634,8372,18433,4114,2162,1562,Tag0,unknown
1500041893418,0,-258,-5.6689453125000004E-5,57,57,46,198630,28283,19634,8372,18433,4114,2162,1562,Tag0,unknown
1500041893437,0,21,4.614257812500001E-6,57,57,46,198630,28283,19634,8372,18433,4114,2162,1562,Tag0,unknown
1500041893438,0,81,1.77978515625E-5,57,57,46,198630,28283,19634,8372,18433,4114,2162,1562,Tag0,unknown
1500041893438,0,98,2.1533203125E-5,57,57,46,198630,28283,19634,8372,18433,4114,2162,1562,Tag0,unknown
1500041893439,0,72,1.58203125E-5,57,57,46,198630,28283,19634,8372,18433,4114,2162,1562,Tag0,unknown
1500041893439,0,24,5.2734375E-6,57,57,46,198630,28283,19634,8372,18433,4114,2162,1562,Tag0,unknown
1500041893440,0,-316,-6.943359375000001E-5,57,57,46,198630,28283,19634,8372,18433,4114,2162,1562,Tag0,unknown
1500041893440,0,-169,-3.7133789062499996E-5,57,57,46,198630,28283,19634,8372,18433,4114,2162,1562,Tag0,unknown
1500041893441,0,-229,-5.03173828125E-5,57,57,46,198630,28283,19634,8372,18433,4114,2162,1562,Tag0,unknown
1500041893441,0,-238,-5.229492187500001E-5,57,57,46,198630,28283,19634,8372,18433,4114,2162,1562,Tag0,unknown
1500041893442,0,-250,-5.4931640625E-5,57,57,46,198630,28283,19634,8372,18433,4114,2162,1562,Tag0,unknown
1500041893442,0,-253,-5.55908203125E-5,57,57,46,198630,28283,19634,8372,18433,4114,2162,1562,Tag0,unknown
1500041893443,0,-205,-4.50439453125E-5,57,57,46,198630,28283,19634,8372,18433,4114,2162,1562,Tag0,unknown
1500041893443,0,-145,-3.18603515625E-5,57,57,46,198630,28283,19634,8372,18433,4114,2162,1562,Tag0,unknown
1500041893443,0,-151,-3.31787109375E-5,57,57,46,198630,28283,19634,8372,18433,4114,2162,1562,Tag0,unknown
1500041893444,0,-179,-3.93310546875E-5,57,57,46,198630,28283,19634,8372,18433,4114,2162,1562,Tag0,unknown
1500041893444,0,-154,-3.3837890625E-5,57,57,46,198630,28283,19634,8372,18433,4114,2162,1562,Tag0,unknown
1500041893444,0,-292,-6.416015625000001E-5,57,57,46,198630,28283,19634,8372,18433,4114,2162,1562,Tag0,unknown
1500041893444,0,104,2.28515625E-5,57,57,46,198630,28283,19634,8372,18433,4114,2162,1562,Tag0,unknown
1500041893444,0,-102,-2.2412109374999998E-5,57,57,46,198630,28283,19634,8372,18433,4114,2162,1562,Tag0,unknown
1500041893459,0,60,1.318359375E-5,57,57,46,198630,28283,19634,8372,18433,4114,2162,1562,Tag0,unknown
1500041893471,0,-313,-6.87744140625E-5,57,57,46,198630,28283,19634,8372,18433,4114,2162,1562,Tag0,unknown
1500041893472,0,-327,-7.18505859375E-5,57,57,46,198630,28283,19634,8372,18433,4114,2162,1562,Tag0,unknown
1500041893472,0,12,2.63671875E-6,57,57,46,198630,28283,19634,8372,18433,4114,2162,1562,Tag0,unknown
1500041893473,0,-125,-2.74658203125E-5,57,57,46,198630,28283,19634,8372,18433,4114,2162,1562,Tag0,unknown
1500041893473,0,-68,-1.4941406250000001E-5,57,57,46,198630,28283,19634,8372,18433,4114,2162,1562,Tag0,unknown
1500041893474,0,-76,-1.669921875E-5,57,57,46,198630,28283,19634,8372,18433,4114,2162,1562,Tag0,unknown
1500041893474,0,-90,-1.9775390625E-5,57,57,46,198630,28283,19634,8372,18433,4114,2162,1562,Tag0,unknown
1500041893475,0,-69,-1.51611328125E-5,57,57,46,198630,28283,19634,8372,18433,4114,2162,1562,Tag0,unknown
1500041893475,0,-28,-6.15234375E-6,57,57,46,198630,28283,19634,8372,18433,4114,2162,1562,Tag0,unknown
1500041893476,0,-11,-2.4169921875E-6,57,57,46,198630,28283,19634,8372,18433,4114,2162,1562,Tag0,unknown
1500041893476,0,-16,-3.515625E-6,57,57,46,198630,28283,19634,8372,18433,4114,2162,1562,Tag0,unknown
1500041893477,0,-55,-1.20849609375E-5,57,57,46,198630,28283,19634,8372,18433,4114,2162,1562,Tag0,unknown
1500041893477,0,-86,-1.8896484375000003E-5,57,57,46,198630,28283,19634,8372,18433,4114,2162,1562,Tag0,unknown
1500041893477,0,-67,-1.4721679687500002E-5,57,57,46,198630,28283,19634,8372,18433,4114,2162,1562,Tag0,unknown
1500041893478,0,-52,-1.142578125E-5,57,57,46,198630,28283,19634,8372,18433,4114,2162,1562,Tag0,unknown
1500041893478,0,-72,-1.58203125E-5,57,57,46,198630,28283,19634,8372,18433,4114,2162,1562,Tag0,unknown
1500041893478,0,-73,-1.6040039062500002E-5,57,57,46,198630,28283,19634,8372,18433,4114,2162,1562,Tag0,unknown
1500041893479,0,-56,-1.23046875E-5,57,57,46,198630,28283,19634,8372,18433,4114,2162,1562,Tag0,unknown
1500041893479,0,-43,-9.448242187500001E-6,57,57,46,198630,28283,19634,8372,18433,4114,2162,1562,Tag0,unknown
1500041893493,0,-61,-1.34033203125E-5,57,57,46,198630,28283,19634,8372,18433,4114,2162,1562,Tag0,unknown
1500041893505,0,-107,-2.35107421875E-5,57,57,46,198630,28283,19634,8372,18433,4114,2162,1562,Tag0,unknown
1500041893505,0,109,2.39501953125E-5,57,57,46,198630,28283,19634,8372,18433,4114,2162,1562,Tag0,unknown
1500041893506,0,115,2.52685546875E-5,57,57,46,198630,28283,19634,8372,18433,4114,2162,1562,Tag0,unknown
1500041893506,0,-94,-2.0654296875000002E-5,57,57,46,198630,28283,19634,8372,18433,4114,2162,1562,Tag0,unknown
1500041893507,0,-70,-1.5380859375E-5,57,57,46,198630,28283,19634,8372,18433,4114,2162,1562,Tag0,unknown
1500041893507,0,-106,-2.3291015625000003E-5,57,57,46,198630,28283,19634,8372,18433,4114,2162,1562,Tag0,unknown
1500041893508,0,97,2.13134765625E-5,57,57,46,198630,28283,19634,8372,18433,4114,2162,1562,Tag0,unknown
1500041893508,0,83,1.82373046875E-5,57,57,46,198630,28283,19634,8372,18433,4114,2162,1562,Tag0,unknown
1500041893509,0,112,2.4609375E-5,57,57,46,198630,28283,19634,8372,18433,4114,2162,1562,Tag0,unknown
1500041893509,0,125,2.74658203125E-5,57,57,46,198630,28283,19634,8372,18433,4114,2162,1562,Tag0,unknown
1500041893510,0,109,2.39501953125E-5,57,57,46,198630,28283,19634,8372,18433,4114,2162,1562,Tag0,unknown
1500041893510,0,108,2.3730468750000002E-5,57,57,46,198630,28283,19634,8372,18433,4114,2162,1562,Tag0,unknown
1500041893511,0,-118,-2.5927734375E-5,57,61,46,154590,7651,734,1996,2799,1080,675,16777139,Tag0,unknown
1500041893511,0,-55,-1.20849609375E-5,57,61,46,154590,7651,734,1996,2799,1080,675,16777139,Tag0,unknown
1500041893512,0,-30,-6.591796875E-6,57,61,46,154590,7651,734,1996,2799,1080,675,16777139,Tag0,unknown
1500041893529,0,-86,-1.8896484375000003E-5,57,61,46,154590,7651,734,1996,2799,1080,675,16777139,Tag0,unknown
1500041893538,0,107,2.35107421875E-5,57,61,46,154590,7651,734,1996,2799,1080,675,16777139,Tag0,unknown
1500041893539,0,101,2.2192382812500002E-5,57,61,46,154590,7651,734,1996,2799,1080,675,16777139,Tag0,unknown
1500041893539,0,107,2.35107421875E-5,57,61,46,154590,7651,734,1996,2799,1080,675,16777139,Tag0,unknown
1500041893540,0,-94,-2.0654296875000002E-5,57,61,46,154590,7651,734,1996,2799,1080,675,16777139,Tag0,unknown
1500041893540,0,-21,-4.614257812500001E-6,57,61,46,154590,7651,734,1996,2799,1080,675,16777139,Tag0,unknown
1500041893541,0,274,6.0205078124999997E-5,57,61,46,154590,7651,734,1996,2799,1080,675,16777139,Tag0,unknown
1500041893541,0,300,6.591796875E-5,57,61,46,154590,7651,734,1996,2799,1080,675,16777139,Tag0,unknown
1500041893542,0,338,7.426757812499999E-5,57,61,46,154590,7651,734,1996,2799,1080,675,16777139,Tag0,unknown
1500041893542,0,371,8.151855468750001E-5,57,61,46,154590,7651,734,1996,2799,1080,675,16777139,Tag0,unknown
1500041893571,0,151,3.31787109375E-5,57,61,46,154590,7651,734,1996,2799,1080,675,16777139,Tag0,unknown
1500041893590,0,188,4.1308593750000004E-5,57,61,46,154590,7651,734,1996,2799,1080,675,16777139,Tag0,unknown
1500041893591,0,250,5.4931640625E-5,57,61,46,154590,7651,734,1996,2799,1080,675,16777139,Tag0,unknown
1500041893594,0,583,1.281005859375E-4,57,61,46,154590,7651,734,1996,2799,1080,675,16777139,Tag0,unknown
1500041893596,0,391,8.591308593750001E-5,57,61,46,154590,7651,734,1996,2799,1080,675,16777139,Tag0,unknown
1500041893598,0,388,8.525390625E-5,57,61,46,154590,7651,734,1996,2799,1080,675,16777139,Tag0,unknown
1500041893599,0,584,1.2832031250000002E-4,57,61,46,154590,7651,734,1996,2799,1080,675,16777139,Tag0,unknown
1500041893600,0,577,1.2678222656250002E-4,57,61,46,154590,7651,734,1996,2799,1080,675,16777139,Tag0,unknown
1500041893602,0,601,1.3205566406249998E-4,57,61,46,154590,7651,734,1996,2799,1080,675,16777139,Tag0,unknown
1500041893605,0,594,1.3051757812500002E-4,57,61,46,154590,7651,734,1996,2799,1080,675,16777139,Tag0,unknown
1500041893606,0,515,1.131591796875E-4,57,61,46,154590,7651,734,1996,2799,1080,675,16777139,Tag0,unknown
1500041893607,0,140,3.076171875E-5,57,61,46,154590,7651,734,1996,2799,1080,675,16777139,Tag0,unknown
1500041893607,0,135,2.96630859375E-5,57,61,46,154590,7651,734,1996,2799,1080,675,16777139,Tag0,unknown
1500041893608,0,240,5.2734375E-5,57,61,46,154590,7651,734,1996,2799,1080,675,16777139,Tag0,unknown
1500041893609,0,585,1.285400390625E-4,57,61,46,154590,7651,734,1996,2799,1080,675,16777139,Tag0,unknown
1500041893609,0,595,1.307373046875E-4,57,61,46,154590,7651,734,1996,2799,1080,675,16777139,Tag0,unknown
1500041893610,0,545,1.197509765625E-4,57,61,46,154590,7651,734,1996,2799,1080,675,16777139,Tag0,unknown
1500041893611,0,241,5.29541015625E-5,57,61,46,154590,7651,734,1996,2799,1080,675,16777139,Tag0,unknown
1500041893612,0,536,1.1777343750000001E-4,57,61,46,154590,7651,734,1996,2799,1080,675,16777139,Tag0,unknown
1500041893613,0,633,1.3908691406250002E-4,57,61,46,154590,7651,734,1996,2799,1080,675,16777139,Tag0,unknown
1500041893613,0,424,9.316406250000001E-5,57,61,46,154590,7651,734,1996,2799,1080,675,16777139,Tag0,unknown
1500041893614,0,409,8.986816406250001E-5,57,61,46,154590,7651,734,1996,2799,1080,675,16777139,Tag0,unknown
1500041893614,0,613,1.3469238281250002E-4,57,61,46,154590,7651,734,1996,2799,1080,675,16777139,Tag0,unknown
1500041893615,0,599,1.316162109375E-4,57,61,46,154590,7651,734,1996,2799,1080,675,16777139,Tag0,unknown
1500041893615,0,603,1.3249511718750002E-4,57,61,46,154590,7651,734,1996,2799,1080,675,16777139,Tag0,unknown
1500041893615,0,571,1.254638671875E-4,57,61,46,154590,7651,734,1996,2799,1080,675,16777139,Tag0,unknown
1500041893616,0,218,4.7900390625E-5,57,61,46,154590,7651,734,1996,2799,1080,675,16777139,Tag0,unknown
1500041893616,0,145,3.18603515625E-5,57,61,46,154590,7651,734,1996,2799,1080,675,16777139,Tag0,unknown
1500041893617,0,161,3.53759765625E-5,57,61,46,154590,7651,734,1996,2799,1080,675,16777139,Tag0,unknown
1500041893617,0,226,4.9658203125E-5,57,61,46,154590,7651,734,1996,2799,1080,675,16777139,Tag0,unknown
1500041893622,0,535,1.175537109375E-4,57,61,46,154590,7651,734,1996,2799,1080,675,16777139,Tag0,unknown
1500041893623,0,539,1.1843261718750001E-4,57,61,46,154590,7651,734,1996,2799,1080,675,16777139,Tag0,unknown
1500041893624,0,252,5.537109375E-5,57,61,46,154590,7651,734,1996,2799,1080,675,16777139,Tag0,unknown
1500041893624,0,242,5.3173828125000005E-5,57,61,46,154590,7651,734,1996,2799,1080,675,16777139,Tag0,unknown
1500041893625,0,515,1.131591796875E-4,57,61,46,154590,7651,734,1996,2799,1080,675,16777139,Tag0,unknown
1500041893626,0,534,1.17333984375E-4,57,61,46,154590,7651,734,1996,2799,1080,675,16777139,Tag0,unknown
1500041893626,0,242,5.3173828125000005E-5,57,61,46,154590,7651,734,1996,2799,1080,675,16777139,Tag0,unknown
1500041893627,0,164,3.6035156249999995E-5,57,61,46,154590,7651,734,1996,2799,1080,675,16777139,Tag0,unknown
1500041893627,0,133,2.92236328125E-5,57,61,46,154590,7651,734,1996,2799,1080,675,16777139,Tag0,unknown
1500041893628,0,156,3.427734375E-5,57,61,46,154590,7651,734,1996,2799,1080,675,16777139,Tag0,unknown
1500041893629,0,177,3.8891601562500006E-5,57,61,46,154590,7651,734,1996,2799,1080,675,16777139,Tag0,unknown
1500041893630,0,161,3.53759765625E-5,57,61,46,154590,7651,734,1996,2799,1080,675,16777139,Tag0,unknown
1500041893630,0,358,7.8662109375E-5,57,61,46,154590,7651,734,1996,2799,1080,675,16777139,Tag0,unknown
1500041893631,0,326,7.163085937500001E-5,57,61,46,154590,7651,734,1996,2799,1080,675,16777139,Tag0,unknown
1500041893631,0,340,7.470703125E-5,57,61,46,154590,7651,734,1996,2799,1080,675,16777139,Tag0,unknown
1500041893632,0,363,7.97607421875E-5,57,61,46,154590,7651,734,1996,2799,1080,675,16777139,Tag0,unknown
1500041893632,0,363,7.97607421875E-5,57,61,46,154590,7651,734,1996,2799,1080,675,16777139,Tag0,unknown
1500041893634,0,325,7.14111328125E-5,57,61,46,154590,7651,734,1996,2799,1080,675,16777139,Tag0,unknown
1500041893634,0,283,6.218261718750001E-5,57,61,46,154590,7651,734,1996,2799,1080,675,16777139,Tag0,unknown
1500041893635,0,290,6.3720703125E-5,57,61,46,154590,7651,734,1996,2799,1080,675,16777139,Tag0,unknown
1500041893664,0,300,6.591796875E-5,57,61,46,154590,7651,734,1996,2799,1080,675,16777139,Tag0,unknown
1500041893664,0,272,5.9765625000000004E-5,57,61,46,154590,7651,734,1996,2799,1080,675,16777139,Tag0,unknown
1500041893674,0,-53,-1.1645507812500002E-5,57,61,46,154590,7651,734,1996,2799,1080,675,16777139,Tag0,unknown
1500041893675,0,-79,-1.7358398437500003E-5,57,61,60,154590,7651,734,1996,2799,1080,675,16777139,Tag0,unknown
1500041893676,0,-60,-1.318359375E-5,57,61,60,154590,7651,734,1996,2799,1080,675,16777139,Tag0,unknown
1500041893677,0,-41,-9.008789062499999E-6,57,61,60,154590,7651,734,1996,2799,1080,675,16777139,Tag0,unknown
1500041893677,0,-31,-6.8115234375E-6,57,61,60,154590,7651,734,1996,2799,1080,675,16777139,Tag0,unknown
1500041893678,0,-60,-1.318359375E-5,57,61,60,154590,7651,734,1996,2799,1080,675,16777139,Tag0,unknown
1500041893678,0,-78,-1.7138671875E-5,57,61,60,154590,7651,734,1996,2799,1080,675,16777139,Tag0,unknown
1500041893679,0,-71,-1.56005859375E-5,57,61,60,154590,7651,734,1996,2799,1080,675,16777139,Tag0,unknown
1500041893680,0,-60,-1.318359375E-5,57,61,60,154590,7651,734,1996,2799,1080,675,16777139,Tag0,unknown
1500041893680,0,-64,-1.40625E-5,57,61,60,154590,7651,734,1996,2799,1080,675,16777139,Tag0,unknown
1500041893681,0,-106,-2.3291015625000003E-5,57,61,60,154590,7651,734,1996,2799,1080,675,16777139,Tag0,unknown
1500041893681,0,106,2.3291015625000003E-5,57,61,60,154590,7651,734,1996,2799,1080,675,16777139,Tag0,unknown
1500041893681,0,81,1.77978515625E-5,57,61,60,154590,7651,734,1996,2799,1080,675,16777139,Tag0,unknown
1500041893682,0,83,1.82373046875E-5,57,61,60,154590,7651,734,1996,2799,1080,675,16777139,Tag0,unknown
1500041893682,0,118,2.5927734375E-5,57,61,60,154590,7651,734,1996,2799,1080,675,16777139,Tag0,unknown
1500041893682,0,-123,-2.70263671875E-5,57,61,60,154590,7651,734,1996,2799,1080,675,16777139,Tag0,unknown
1500041893683,0,114,2.5048828125000003E-5,57,61,60,154590,7651,734,1996,2799,1080,675,16777139,Tag0,unknown
1500041893684,0,89,1.95556640625E-5,57,61,60,154590,7651,734,1996,2799,1080,675,16777139,Tag0,unknown
1500041893684,0,98,2.1533203125E-5,57,61,60,154590,7651,734,1996,2799,1080,675,16777139,Tag0,unknown
1500041893684,0,106,2.3291015625000003E-5,57,61,60,154590,7651,734,1996,2799,1080,675,16777139,Tag0,unknown
1500041893684,0,86,1.8896484375000003E-5,57,61,60,154590,7651,734,1996,2799,1080,675,16777139,Tag0,unknown
1500041893685,0,43,9.448242187500001E-6,57,61,60,154590,7651,734,1996,2799,1080,675,16777139,Tag0,unknown
1500041893685,0,24,5.2734375E-6,57,61,60,154590,7651,734,1996,2799,1080,675,16777139,Tag0,unknown
1500041893685,0,48,1.0546875E-5,57,61,60,154590,7651,734,1996,2799,1080,675,16777139,Tag0,unknown
1500041893685,0,77,1.69189453125E-5,57,61,60,154590,7651,734,1996,2799,1080,675,16777139,Tag0,unknown
1500041893686,0,57,1.2524414062500001E-5,57,61,60,154590,7651,734,1996,2799,1080,675,16777139,Tag0,unknown
1500041893686,0,2,4.39453125E-7,57,61,60,154590,7651,734,1996,2799,1080,675,16777139,Tag0,unknown
1500041893691,0,-310,-6.8115234375E-5,57,61,60,154590,7651,734,1996,2799,1080,675,16777139,Tag0,unknown
1500041893747,0,-314,-6.8994140625E-5,57,61,60,154590,7651,734,1996,2799,1080,675,16777139,Tag0,unknown
1500041893759,0,-268,-5.8886718750000006E-5,57,61,60,154590,7651,734,1996,2799,1080,675,16777139,Tag0,unknown
1500041893759,0,12,2.63671875E-6,57,61,60,154590,7651,734,1996,2799,1080,675,16777139,Tag0,unknown
1500041893760,0,-263,-5.7788085937500005E-5,57,61,60,154590,7651,734,1996,2799,1080,675,16777139,Tag0,unknown
1500041893761,0,-286,-6.2841796875E-5,57,61,60,154590,7651,734,1996,2799,1080,675,16777139,Tag0,unknown
1500041893761,0,-283,-6.218261718750001E-5,57,61,60,154590,7651,734,1996,2799,1080,675,16777139,Tag0,unknown
1500041893762,0,-261,-5.73486328125E-5,57,61,60,154590,7651,734,1996,2799,1080,675,16777139,Tag0,unknown
1500041893763,0,8,1.7578125E-6,57,61,60,154590,7651,734,1996,2799,1080,675,16777139,Tag0,unknown
1500041893764,0,-265,-5.82275390625E-5,57,61,60,154590,7651,734,1996,2799,1080,675,16777139,Tag0,unknown
1500041893765,0,-281,-6.17431640625E-5,57,61,60,154590,7651,734,1996,2799,1080,675,16777139,Tag0,unknown
1500041893796,0,-266,-5.8447265625E-5,57,61,60,154590,7651,734,1996,2799,1080,675,16777139,Tag0,unknown
1500041893809,0,-269,-5.9106445312499996E-5,57,61,60,154590,7651,734,1996,2799,1080,675,16777139,Tag0,unknown
1500041893809,0,-315,-6.92138671875E-5,57,61,60,154590,7651,734,1996,2799,1080,675,16777139,Tag0,unknown
1500041893810,0,-371,-8.151855468750001E-5,57,61,60,154590,7651,734,1996,2799,1080,675,16777139,Tag0,unknown
1500041893810,0,-166,-3.6474609375E-5,57,61,60,154590,7651,734,1996,2799,1080,675,16777139,Tag0,unknown
1500041893811,0,-163,-3.5815429687500006E-5,57,61,60,154590,7651,734,1996,2799,1080,675,16777139,Tag0,unknown
1500041893811,0,-365,-8.02001953125E-5,57,61,60,154590,7651,734,1996,2799,1080,675,16777139,Tag0,unknown
1500041893812,0,-342,-7.5146484375E-5,57,61,60,154590,7651,734,1996,2799,1080,675,16777139,Tag0,unknown
1500041893813,0,-138,-3.0322265625E-5,57,61,60,154590,7651,734,1996,2799,1080,675,16777139,Tag0,unknown
1500041893813,0,-180,-3.955078125E-5,57,61,60,154590,7651,734,1996,2799,1080,675,16777139,Tag0,unknown
1500041893814,0,-148,-3.251953125E-5,57,61,60,154590,7651,734,1996,2799,1080,675,16777139,Tag0,unknown
1500041893814,0,-345,-7.58056640625E-5,57,61,60,154590,7651,734,1996,2799,1080,675,16777139,Tag0,unknown
1500041893815,0,-332,-7.294921875E-5,57,61,60,154590,7651,734,1996,2799,1080,675,16777139,Tag0,unknown
1500041893815,0,-369,-8.10791015625E-5,57,61,60,154590,7651,734,1996,2799,1080,675,16777139,Tag0,unknown
1500041893815,0,-156,-3.427734375E-5,57,61,60,154590,7651,734,1996,2799,1080,675,16777139,Tag0,unknown
1500041893815,0,-147,-3.22998046875E-5,57,61,60,154590,7651,734,1996,2799,1080,675,16777139,Tag0,unknown
1500041893816,0,-340,-7.470703125E-5,57,61,60,154590,7651,734,1996,2799,1080,675,16777139,Tag0,unknown
1500041893816,0,-305,-6.70166015625E-5,57,61,60,154590,7651,734,1996,2799,1080,675,16777139,Tag0,unknown
1500041893817,0,-327,-7.18505859375E-5,57,61,60,154590,7651,734,1996,2799,1080,675,16777139,Tag0,unknown
1500041893817,0,-382,-8.3935546875E-5,57,61,60,154590,7651,734,1996,2799,1080,675,16777139,Tag0,unknown
1500041893817,0,-161,-3.53759765625E-5,57,61,60,154590,7651,734,1996,2799,1080,675,16777139,Tag0,unknown
1500041893818,0,-139,-3.0541992187500004E-5,57,61,60,154590,7651,734,1996,2799,1080,675,16777139,Tag0,unknown
1500041893818,0,-349,-7.668457031250001E-5,57,61,60,154590,7651,734,1996,2799,1080,675,16777139,Tag0,unknown
1500041893819,0,-324,-7.119140625E-5,57,61,60,154590,7651,734,1996,2799,1080,675,16777139,Tag0,unknown
1500041893820,0,-344,-7.558593750000001E-5,57,61,60,154590,7651,734,1996,2799,1080,675,16777139,Tag0,unknown
1500041893820,0,-371,-8.151855468750001E-5,57,61,60,154590,7651,734,1996,2799,1080,675,16777139,Tag0,unknown
1500041893821,0,-369,-8.10791015625E-5,57,61,60,154590,7651,734,1996,2799,1080,675,16777139,Tag0,unknown
1500041893822,0,-342,-7.5146484375E-5,57,61,60,154590,7651,734,1996,2799,1080,675,16777139,Tag0,unknown
1500041893823,0,-324,-7.119140625E-5,57,61,60,154590,7651,734,1996,2799,1080,675,16777139,Tag0,unknown
1500041893823,0,-325,-7.14111328125E-5,57,61,60,154590,7651,734,1996,2799,1080,675,16777139,Tag0,unknown
1500041893824,0,-329,-7.229003906250001E-5,57,61,60,154590,7651,734,1996,2799,1080,675,16777139,Tag0,unknown
1500041893824,0,-313,-6.87744140625E-5,57,61,60,154590,7651,734,1996,2799,1080,675,16777139,Tag0,unknown
1500041893825,0,-273,-5.998535156250001E-5,57,61,60,154590,7651,734,1996,2799,1080,675,16777139,Tag0,unknown
1500041893825,0,-264,-5.80078125E-5,57,61,60,154590,7651,734,1996,2799,1080,675,16777139,Tag0,unknown
1500041893826,0,-293,-6.43798828125E-5,57,61,60,154590,7651,734,1996,2799,1080,675,16777139,Tag0,unknown
1500041893827,0,-284,-6.240234375E-5,57,61,60,154590,7651,734,1996,2799,1080,675,16777139,Tag0,unknown
1500041893827,0,2,4.39453125E-7,57,61,60,154590,7651,734,1996,2799,1080,675,16777139,Tag0,unknown
1500041893828,0,25,5.4931640625E-6,57,61,60,154590,7651,734,1996,2799,1080,675,16777139,Tag0,unknown
1500041893828,0,28,6.15234375E-6,57,61,60,154590,7651,734,1996,2799,1080,675,16777139,Tag0,unknown
1500041893829,0,-258,-5.6689453125000004E-5,57,61,60,154590,7651,734,1996,2799,1080,675,16777139,Tag0,unknown
1500041893829,0,-295,-6.48193359375E-5,57,61,60,154590,7651,734,1996,2799,1080,675,16777139,Tag0,unknown
1500041893830,0,-296,-6.50390625E-5,57,61,60,154590,7651,734,1996,2799,1080,675,16777139,Tag0,unknown
1500041893830,0,-264,-5.80078125E-5,57,61,60,154590,7651,734,1996,2799,1080,675,16777139,Tag0,unknown
1500041893830,0,13,2.8564453125E-6,57,61,60,154590,7651,734,1996,2799,1080,675,16777139,Tag0,unknown
1500041893831,0,16,3.515625E-6,57,61,60,154590,7651,734,1996,2799,1080,675,16777139,Tag0,unknown
1500041893831,0,5,1.0986328125E-6,57,61,60,154590,7651,734,1996,2799,1080,675,16777139,Tag0,unknown
1500041893832,0,3,6.591796875E-7,57,61,60,154590,7651,734,1996,2799,1080,675,16777139,Tag0,unknown
1500041893832,0,36,7.91015625E-6,57,61,60,154590,7651,734,1996,2799,1080,675,16777139,Tag0,unknown
1500041893832,0,68,1.4941406250000001E-5,57,61,60,154590,7651,734,1996,2799,1080,675,16777139,Tag0,unknown
1500041893833,0,44,9.66796875E-6,57,61,60,154590,7651,734,1996,2799,1080,675,16777139,Tag0,unknown
1500041893833,0,10,2.197265625E-6,57,61,60,154590,7651,734,1996,2799,1080,675,16777139,Tag0,unknown
1500041893833,0,5,1.0986328125E-6,57,61,60,154590,7651,734,1996,2799,1080,675,16777139,Tag0,unknown
1500041893833,0,33,7.2509765625E-6,57,61,60,154590,7651,734,1996,2799,1080,675,16777139,Tag0,unknown
1500041893836,0,66,1.4501953125E-5,57,61,60,154590,7651,734,1996,2799,1080,675,16777139,Tag0,unknown
1500041893836,0,52,1.142578125E-5,57,61,60,154590,7651,734,1996,2799,1080,675,16777139,Tag0,unknown
1500041893836,0,0,0.0,57,61,60,154590,7651,734,1996,2799,1080,675,16777139,Tag0,unknown
1500041893836,0,-274,-6.0205078124999997E-5,57,61,60,154590,7651,734,1996,2799,1080,675,16777139,Tag0,unknown
1500041893837,0,-264,-5.80078125E-5,57,61,60,154590,7651,734,1996,2799,1080,675,16777139,Tag0,unknown
1500041893837,0,-259,-5.69091796875E-5,57,61,60,154590,7651,734,1996,2799,1080,675,16777139,Tag0,unknown
1500041893837,0,-279,-6.13037109375E-5,57,61,60,154590,7651,734,1996,2799,1080,675,16777139,Tag0,unknown
1500041893856,0,-314,-6.8994140625E-5,57,61,60,154590,7651,734,1996,2799,1080,675,16777139,Tag0,unknown
1500041893856,0,-338,-7.426757812499999E-5,57,61,60,154590,7651,734,1996,2799,1080,675,16777139,Tag0,unknown
1500041893874,0,-330,-7.2509765625E-5,57,61,60,154590,7651,734,1996,2799,1080,675,16777139,Tag0,unknown
1500041893875,0,-325,-7.14111328125E-5,57,61,60,154590,7651,734,1996,2799,1080,675,16777139,Tag0,unknown
1500041893875,0,-340,-7.470703125E-5,57,61,60,154590,7651,734,1996,2799,1080,675,16777139,Tag0,unknown
1500041893875,0,-373,-8.19580078125E-5,57,61,60,154590,7651,734,1996,2799,1080,675,16777139,Tag0,unknown
1500041893875,0,-374,-8.2177734375E-5,57,61,60,154590,7651,734,1996,2799,1080,675,16777139,Tag0,unknown
1500041893876,0,-350,-7.6904296875E-5,57,61,60,154590,7651,734,1996,2799,1080,675,16777139,Tag0,unknown
1500041893876,0,-338,-7.426757812499999E-5,57,61,60,154590,7651,734,1996,2799,1080,675,16777139,Tag0,unknown
1500041893876,0,-341,-7.492675781250002E-5,57,61,60,154590,7651,734,1996,2799,1080,675,16777139,Tag0,unknown
1500041893876,0,-374,-8.2177734375E-5,57,61,60,154590,7651,734,1996,2799,1080,675,16777139,Tag0,unknown
1500041893877,0,-152,-3.33984375E-5,57,61,60,154590,7651,734,1996,2799,1080,675,16777139,Tag0,unknown
1500041893877,0,-132,-2.900390625E-5,57,61,60,154590,7651,734,1996,2799,1080,675,16777139,Tag0,unknown
1500041893877,0,-340,-7.470703125E-5,57,61,60,154590,7651,734,1996,2799,1080,675,16777139,Tag0,unknown
1500041893877,0,-340,-7.470703125E-5,57,61,60,154590,7651,734,1996,2799,1080,675,16777139,Tag0,unknown
1500041893877,0,-381,-8.371582031250001E-5,57,61,60,154590,7651,734,1996,2799,1080,675,16777139,Tag0,unknown
1500041893878,0,-137,-3.0102539062499998E-5,57,61,60,154590,7651,734,1996,2799,1080,675,16777139,Tag0,unknown
1500041893878,0,-348,-7.646484375E-5,57,61,60,154590,7651,734,1996,2799,1080,675,16777139,Tag0,unknown
1500041893878,0,-289,-6.35009765625E-5,57,61,60,154590,7651,734,1996,2799,1080,675,16777139,Tag0,unknown
1500041893878,0,-266,-5.8447265625E-5,57,61,60,154590,7651,734,1996,2799,1080,675,16777139,Tag0,unknown
1500041893914,0,-293,-6.43798828125E-5,57,61,60,154590,7651,734,1996,2799,1080,675,16777139,Tag0,unknown
1500041893929,0,-330,-7.2509765625E-5,57,61,60,154590,7651,734,1996,2799,1080,675,16777139,Tag0,unknown
1500041893930,0,-355,-7.80029296875E-5,57,61,60,154590,7651,734,1996,2799,1080,675,16777139,Tag0,unknown
1500041893931,0,-343,-7.53662109375E-5,57,61,60,154590,7651,734,1996,2799,1080,675,16777139,Tag0,unknown
1500041893932,0,-322,-7.0751953125E-5,57,61,60,154590,7651,734,1996,2799,1080,675,16777139,Tag0,unknown
1500041893933,0,-326,-7.163085937500001E-5,57,61,60,154590,7651,734,1996,2799,1080,675,16777139,Tag0,unknown
1500041893934,0,-329,-7.229003906250001E-5,57,61,60,154590,7651,734,1996,2799,1080,675,16777139,Tag0,unknown
1500041893935,0,-313,-6.87744140625E-5,57,61,60,154590,7651,734,1996,2799,1080,675,16777139,Tag0,unknown
1500041893936,0,-291,-6.39404296875E-5,57,61,60,154590,7651,734,1996,2799,1080,675,16777139,Tag0,unknown
1500041893937,0,-280,-6.15234375E-5,57,61,60,154590,7651,734,1996,2799,1080,675,16777139,Tag0,unknown
1500041893937,0,-269,-5.9106445312499996E-5,57,61,60,154590,7651,734,1996,2799,1080,675,16777139,Tag0,unknown
1500041893938,0,-261,-5.73486328125E-5,57,61,60,154590,7651,734,1996,2799,1080,675,16777139,Tag0,unknown
1500041893939,0,4,8.7890625E-7,57,61,60,154590,7651,734,1996,2799,1080,675,16777139,Tag0,unknown
1500041893939,0,23,5.0537109375E-6,57,61,60,154590,7651,734,1996,2799,1080,675,16777139,Tag0,unknown
1500041893940,0,27,5.9326171875000005E-6,57,61,60,154590,7651,734,1996,2799,1080,675,16777139,Tag0,unknown
1500041893941,0,5,1.0986328125E-6,57,61,60,154590,7651,734,1996,2799,1080,675,16777139,Tag0,unknown
1500041893942,0,-291,-6.39404296875E-5,57,61,60,154590,7651,734,1996,2799,1080,675,16777139,Tag0,unknown
1500041893942,0,-306,-6.723632812500001E-5,57,61,60,154590,7651,734,1996,2799,1080,675,16777139,Tag0,unknown
1500041893943,0,-279,-6.13037109375E-5,57,61,60,154590,7651,734,1996,2799,1080,675,16777139,Tag0,unknown
1500041893943,0,12,2.63671875E-6,57,61,60,154590,7651,734,1996,2799,1080,675,16777139,Tag0,unknown
1500041893944,0,13,2.8564453125E-6,57,61,60,154590,7651,734,1996,2799,1080,675,16777139,Tag0,unknown
1500041893944,0,-265,-5.82275390625E-5,57,61,60,154590,7651,734,1996,2799,1080,675,16777139,Tag0,unknown
1500041893944,0,-283,-6.218261718750001E-5,57,61,60,154590,7651,734,1996,2799,1080,675,16777139,Tag0,unknown
1500041893945,0,-270,-5.9326171875E-5,57,61,60,154590,7651,734,1996,2799,1080,675,16777139,Tag0,unknown
1500041893945,0,9,1.9775390625E-6,57,61,60,154590,7651,734,1996,2799,1080,675,16777139,Tag0,unknown
1500041893946,0,16,3.515625E-6,57,61,60,154590,7651,734,1996,2799,1080,675,16777139,Tag0,unknown
1500041893946,0,-262,-5.7568359375E-5,57,61,60,154590,7651,734,1996,2799,1080,675,16777139,Tag0,unknown
1500041893947,0,3,6.591796875E-7,57,61,60,154590,7651,734,1996,2799,1080,675,16777139,Tag0,unknown
1500041893947,0,39,8.5693359375E-6,57,61,60,154590,7651,734,1996,2799,1080,675,16777139,Tag0,unknown
1500041893947,0,43,9.448242187500001E-6,57,61,60,154590,7651,734,1996,2799,1080,675,16777139,Tag0,unknown
1500041893948,0,17,3.7353515625000003E-6,57,61,60,154590,7651,734,1996,2799,1080,675,16777139,Tag0,unknown
1500041893949,0,-280,-6.15234375E-5,57,61,60,154590,7651,734,1996,2799,1080,675,16777139,Tag0,unknown
1500041893949,0,-313,-6.87744140625E-5,57,61,60,154590,7651,734,1996,2799,1080,675,16777139,Tag0,unknown
1500041893949,0,-306,-6.723632812500001E-5,57,61,60,154590,7651,734,1996,2799,1080,675,16777139,Tag0,unknown
1500041893950,0,-280,-6.15234375E-5,57,61,60,154590,7651,734,1996,2799,1080,675,16777139,Tag0,unknown
1500041893951,0,-292,-6.416015625000001E-5,57,61,60,154590,7651,734,1996,2799,1080,675,16777139,Tag0,unknown
1500041893952,0,-311,-6.833496093750001E-5,57,61,60,154590,7651,734,1996,2799,1080,675,16777139,Tag0,unknown
1500041893952,0,-307,-6.74560546875E-5,57,61,60,154590,7651,734,1996,2799,1080,675,16777139,Tag0,unknown
1500041893953,0,-264,-5.80078125E-5,57,61,60,154590,7651,734,1996,2799,1080,675,16777139,Tag0,unknown
1500041893953,0,36,7.91015625E-6,57,61,60,154590,7651,734,1996,2799,1080,675,16777139,Tag0,unknown
1500041893974,0,39,8.5693359375E-6,57,61,60,154590,7651,734,1996,2799,1080,675,16777139,Tag0,unknown
1500041893994,0,-274,-6.0205078124999997E-5,57,61,60,154590,7651,734,1996,2799,1080,675,16777139,Tag0,unknown
1500041893994,0,-346,-7.6025390625E-5,57,61,60,154590,7651,734,1996,2799,1080,675,16777139,Tag0,unknown
1500041893995,0,-371,-8.151855468750001E-5,57,61,60,154590,7651,734,1996,2799,1080,675,16777139,Tag0,unknown
1500041893996,0,-330,-7.2509765625E-5,57,61,60,154590,7651,734,1996,2799,1080,675,16777139,Tag0,unknown
1500041893996,0,-297,-6.525878906250001E-5,57,61,60,154590,7651,734,1996,2799,1080,675,16777139,Tag0,unknown
1500041893997,0,-316,-6.943359375000001E-5,57,61,60,154590,7651,734,1996,2799,1080,675,16777139,Tag0,unknown
1500041893998,0,-356,-7.822265625E-5,57,61,60,154590,7651,734,1996,2799,1080,675,16777139,Tag0,unknown
1500041893999,0,-364,-7.998046875E-5,57,61,60,154590,7651,734,1996,2799,1080,675,16777139,Tag0,unknown
1500041894001,0,-326,-7.163085937500001E-5,57,61,60,154590,7651,734,1996,2799,1080,675,16777139,Tag0,unknown
1500041894002,0,-281,-6.17431640625E-5,57,61,60,154590,7651,734,1996,2799,1080,675,16777139,Tag0,unknown
1500041894002,0,-260,-5.712890625E-5,57,61,60,154590,7651,734,1996,2799,1080,675,16777139,Tag0,unknown
1500041894003,0,1,2.197265625E-7,57,61,60,154590,7651,734,1996,2799,1080,675,16777139,Tag0,unknown
1500041894003,0,-268,-5.8886718750000006E-5,57,61,60,154590,7651,734,1996,2799,1080,675,16777139,Tag0,unknown
1500041894004,0,-279,-6.13037109375E-5,57,61,60,154590,7651,734,1996,2799,1080,675,16777139,Tag0,unknown
1500041894004,0,4,8.7890625E-7,57,61,60,154590,7651,734,1996,2799,1080,675,16777139,Tag0,unknown
1500041894004,0,25,5.4931640625E-6,57,61,60,154590,7651,734,1996,2799,1080,675,16777139,Tag0,unknown
1500041894005,0,10,2.197265625E-6,57,61,60,154590,7651,734,1996,2799,1080,675,16777139,Tag0,unknown
1500041894005,0,-264,-5.80078125E-5,57,61,60,154590,7651,734,1996,2799,1080,675,16777139,Tag0,unknown
1500041894005,0,-266,-5.8447265625E-5,57,61,60,154590,7651,734,1996,2799,1080,675,16777139,Tag0,unknown
1500041894006,0,12,2.63671875E-6,57,61,60,154590,7651,734,1996,2799,1080,675,16777139,Tag0,unknown
1500041894006,0,49,1.07666015625E-5,57,61,60,154590,7651,734,1996,2799,1080,675,16777139,Tag0,unknown
1500041894007,0,36,7.91015625E-6,57,61,60,154590,7651,734,1996,2799,1080,675,16777139,Tag0,unknown
1500041894008,0,4,8.7890625E-7,57,61,60,154590,7651,734,1996,2799,1080,675,16777139,Tag0,unknown
1500041894009,0,6,1.318359375E-6,57,61,60,154590,7651,734,1996,2799,1080,675,16777139,Tag0,unknown
1500041894009,0,54,1.1865234375000001E-5,57,61,60,154590,7651,734,1996,2799,1080,675,16777139,Tag0,unknown
1500041894010,0,105,2.30712890625E-5,57,61,60,154590,7651,734,1996,2799,1080,675,16777139,Tag0,unknown
1500041894010,0,109,2.39501953125E-5,57,61,60,154590,7651,734,1996,2799,1080,675,16777139,Tag0,unknown
1500041894010,0,82,1.8017578124999998E-5,57,61,60,154590,7651,734,1996,2799,1080,675,16777139,Tag0,unknown
1500041894010,0,57,1.2524414062500001E-5,57,61,60,154590,7651,734,1996,2799,1080,675,16777139,Tag0,unknown
1500041894056,0,54,1.1865234375000001E-5,57,61,60,154590,7651,734,1996,2799,1080,675,16777139,Tag0,unknown
1500041894084,0,57,1.2524414062500001E-5,57,61,60,154590,7651,734,1996,2799,1080,675,16777139,Tag0,unknown
1500041894085,0,27,5.9326171875000005E-6,57,61,60,154590,7651,734,1996,2799,1080,675,16777139,Tag0,unknown
1500041894087,0,-257,-5.64697265625E-5,57,61,60,154590,7651,734,1996,2799,1080,675,16777139,Tag0,unknown
1500041894088,0,2,4.39453125E-7,57,61,60,154590,7651,734,1996,2799,1080,675,16777139,Tag0,unknown
1500041894090,0,28,6.15234375E-6,57,61,60,154590,7651,734,1996,2799,1080,675,16777139,Tag0,unknown
1500041894091,0,33,7.2509765625E-6,57,61,60,154590,7651,734,1996,2799,1080,675,16777139,Tag0,unknown
1500041894093,0,-264,-5.80078125E-5,57,61,60,154590,7651,734,1996,2799,1080,675,16777139,Tag0,unknown
1500041894094,0,-289,-6.35009765625E-5,57,61,60,154590,7651,734,1996,2799,1080,675,16777139,Tag0,unknown
1500041894095,0,-262,-5.7568359375E-5,57,61,60,154590,7651,734,1996,2799,1080,675,16777139,Tag0,unknown
1500041894172,0,38,8.349609375E-6,57,61,60,154590,7651,734,1996,2799,1080,675,16777139,Tag0,unknown
1500041894185,0,59,1.29638671875E-5,57,61,60,154590,7651,734,1996,2799,1080,675,16777139,Tag0,unknown
1500041894187,0,29,6.3720703125E-6,57,61,60,154590,7651,734,1996,2799,1080,675,16777139,Tag0,unknown
1500041894188,0,-266,-5.8447265625E-5,57,61,60,154590,7651,734,1996,2799,1080,675,16777139,Tag0,unknown
1500041894188,0,-267,-5.86669921875E-5,57,61,60,154590,7651,734,1996,2799,1080,675,16777139,Tag0,unknown
1500041894189,0,-261,-5.73486328125E-5,57,61,60,154590,7651,734,1996,2799,1080,675,16777139,Tag0,unknown
1500041894190,0,-263,-5.7788085937500005E-5,57,61,60,154590,7651,734,1996,2799,1080,675,16777139,Tag0,unknown
1500041894191,0,-283,-6.218261718750001E-5,57,61,60,154590,7651,734,1996,2799,1080,675,16777139,Tag0,unknown
1500041894193,0,-315,-6.92138671875E-5,57,61,60,154590,7651,734,1996,2799,1080,675,16777139,Tag0,unknown
1500041894194,0,-308,-6.767578125E-5,57,61,60,154590,7651,734,1996,2799,1080,675,16777139,Tag0,unknown
1500041894195,0,-264,-5.80078125E-5,57,61,60,154590,7651,734,1996,2799,1080,675,16777139,Tag0,unknown
1500041894198,0,43,9.448242187500001E-6,57,61,60,154590,7651,734,1996,2799,1080,675,16777139,Tag0,unknown
1500041894199,0,70,1.5380859375E-5,57,61,60,154590,7651,734,1996,2799,1080,675,16777139,Tag0,unknown
1500041894199,0,35,7.6904296875E-6,57,61,60,154590,7651,734,1996,2799,1080,675,16777139,Tag0,unknown
1500041894200,0,-261,-5.73486328125E-5,57,61,60,154590,7651,734,1996,2799,1080,675,16777139,Tag0,unknown
1500041894201,0,3,6.591796875E-7,57,61,60,154590,7651,734,1996,2799,1080,675,16777139,Tag0,unknown
1500041894202,0,33,7.2509765625E-6,57,61,60,154590,7651,734,1996,2799,1080,675,16777139,Tag0,unknown
1500041894203,0,10,2.197265625E-6,57,61,60,154590,7651,734,1996,2799,1080,675,16777139,Tag0,unknown
1500041894203,0,-285,-6.26220703125E-5,57,61,60,154590,7651,734,1996,2799,1080,675,16777139,Tag0,unknown
1500041894204,0,-284,-6.240234375E-5,57,61,60,154590,7651,734,1996,2799,1080,675,16777139,Tag0,unknown
1500041894237,0,16,3.515625E-6,57,61,60,154590,7651,734,1996,2799,1080,675,16777139,Tag0,unknown
1500041894246,0,56,1.23046875E-5,57,61,60,154590,7651,734,1996,2799,1080,675,16777139,Tag0,unknown
1500041894246,0,73,1.6040039062500002E-5,57,61,60,154590,7651,734,1996,2799,1080,675,16777139,Tag0,unknown
1500041894247,0,58,1.2744140625E-5,57,61,60,154590,7651,734,1996,2799,1080,675,16777139,Tag0,unknown
1500041894247,0,34,7.4707031250000005E-6,57,61,60,154590,7651,734,1996,2799,1080,675,16777139,Tag0,unknown
1500041894248,0,39,8.5693359375E-6,57,61,60,154590,7651,734,1996,2799,1080,675,16777139,Tag0,unknown
1500041894248,0,60,1.318359375E-5,57,61,60,154590,7651,734,1996,2799,1080,675,16777139,Tag0,unknown
1500041894248,0,55,1.20849609375E-5,57,61,60,154590,7651,734,1996,2799,1080,675,16777139,Tag0,unknown
1500041894249,0,20,4.39453125E-6,57,61,60,154590,7651,734,1996,2799,1080,675,16777139,Tag0,unknown
1500041894249,0,-269,-5.9106445312499996E-5,57,61,60,154590,7651,734,1996,2799,1080,675,16777139,Tag0,unknown
1500041894271,0,-285,-6.26220703125E-5,57,61,60,154590,7651,734,1996,2799,1080,675,16777139,Tag0,unknown
1500041894272,0,-286,-6.2841796875E-5,57,61,60,154590,7651,734,1996,2799,1080,675,16777139,Tag0,unknown
1500041894272,0,-282,-6.1962890625E-5,57,61,60,154590,7651,734,1996,2799,1080,675,16777139,Tag0,unknown
1500041894273,0,-297,-6.525878906250001E-5,57,61,60,154590,7651,734,1996,2799,1080,675,16777139,Tag0,unknown
1500041894274,0,-311,-6.833496093750001E-5,57,61,60,154590,7651,734,1996,2799,1080,675,16777139,Tag0,unknown
1500041894274,0,-298,-6.5478515625E-5,57,61,60,154590,7651,734,1996,2799,1080,675,16777139,Tag0,unknown
1500041894275,0,-295,-6.48193359375E-5,57,61,60,154590,7651,734,1996,2799,1080,675,16777139,Tag0,unknown
1500041894275,0,-309,-6.78955078125E-5,57,61,60,154590,7651,734,1996,2799,1080,675,16777139,Tag0,unknown
1500041894276,0,-329,-7.229003906250001E-5,57,61,60,154590,7651,734,1996,2799,1080,675,16777139,Tag0,unknown
1500041894277,0,-346,-7.6025390625E-5,57,61,60,154590,7651,734,1996,2799,1080,675,16777139,Tag0,unknown
1500041894286,0,-328,-7.207031249999999E-5,57,61,60,154590,7651,734,1996,2799,1080,675,16777139,Tag0,unknown
1500041894286,0,-289,-6.35009765625E-5,57,61,60,154590,7651,734,1996,2799,1080,675,16777139,Tag0,unknown
1500041894287,0,-262,-5.7568359375E-5,57,61,60,154590,7651,734,1996,2799,1080,675,16777139,Tag0,unknown
1500041894287,0,-275,-6.04248046875E-5,57,61,60,154590,7651,734,1996,2799,1080,675,16777139,Tag0,unknown
1500041894287,0,-307,-6.74560546875E-5,57,61,60,154590,7651,734,1996,2799,1080,675,16777139,Tag0,unknown
1500041894287,0,-305,-6.70166015625E-5,57,61,60,154590,7651,734,1996,2799,1080,675,16777139,Tag0,unknown
1500041894288,0,-281,-6.17431640625E-5,57,61,60,154590,7651,734,1996,2799,1080,675,16777139,Tag0,unknown
1500041894288,0,-262,-5.7568359375E-5,57,61,60,154590,7651,734,1996,2799,1080,675,16777139,Tag0,unknown
1500041894288,0,-259,-5.69091796875E-5,57,61,60,154590,7651,734,1996,2799,1080,675,16777139,Tag0,unknown
1500041894288,0,-265,-5.82275390625E-5,57,61,60,154590,7651,734,1996,2799,1080,675,16777139,Tag0,unknown
1500041894289,0,-261,-5.73486328125E-5,57,61,60,154590,7651,734,1996,2799,1080,675,16777139,Tag0,unknown
1500041894289,0,7,1.5380859375E-6,57,61,60,154590,7651,734,1996,2799,1080,675,16777139,Tag0,unknown
1500041894289,0,34,7.4707031250000005E-6,57,61,60,154590,7651,734,1996,2799,1080,675,16777139,Tag0,unknown
1500041894289,0,68,1.4941406250000001E-5,57,61,60,154590,7651,734,1996,2799,1080,675,16777139,Tag0,unknown
1500041894290,0,72,1.58203125E-5,57,61,60,154590,7651,734,1996,2799,1080,675,16777139,Tag0,unknown
1500041894290,0,55,1.20849609375E-5,57,61,60,154590,7651,734,1996,2799,1080,675,16777139,Tag0,unknown
1500041894290,0,45,9.8876953125E-6,57,61,60,154590,7651,734,1996,2799,1080,675,16777139,Tag0,unknown
1500041894290,0,54,1.1865234375000001E-5,57,61,60,154590,7651,734,1996,2799,1080,675,16777139,Tag0,unknown
1500041894291,0,74,1.6259765625E-5,57,61,60,154590,7651,734,1996,2799,1080,675,16777139,Tag0,unknown
1500041894291,0,75,1.64794921875E-5,57,61,60,154590,7651,734,1996,2799,1080,675,16777139,Tag0,unknown
1500041894291,0,52,1.142578125E-5,57,61,60,154590,7651,734,1996,2799,1080,675,16777139,Tag0,unknown
1500041894291,0,38,8.349609375E-6,57,61,60,154590,7651,734,1996,2799,1080,675,16777139,Tag0,unknown
1500041894291,0,41,9.008789062499999E-6,57,61,60,154590,7651,734,1996,2799,1080,675,16777139,Tag0,unknown
1500041894292,0,37,8.1298828125E-6,57,61,60,154590,7651,734,1996,2799,1080,675,16777139,Tag0,unknown
1500041894292,0,5,1.0986328125E-6,57,61,60,154590,7651,734,1996,2799,1080,675,16777139,Tag0,unknown
1500041894292,0,-284,-6.240234375E-5,57,61,60,154590,7651,734,1996,2799,1080,675,16777139,Tag0,unknown
1500041894293,0,-291,-6.39404296875E-5,57,61,60,154590,7651,734,1996,2799,1080,675,16777139,Tag0,unknown
1500041894293,0,-273,-5.998535156250001E-5,57,61,60,154590,7651,734,1996,2799,1080,675,16777139,Tag0,unknown
1500041894293,0,-267,-5.86669921875E-5,57,61,60,154590,7651,734,1996,2799,1080,675,16777139,Tag0,unknown
1500041894293,0,-298,-6.5478515625E-5,57,61,60,154590,7651,734,1996,2799,1080,675,16777139,Tag0,unknown
1500041894294,0,-338,-7.426757812499999E-5,57,61,60,154590,7651,734,1996,2799,1080,675,16777139,Tag0,unknown
1500041894294,0,-321,-7.053222656250001E-5,57,61,60,154590,7651,734,1996,2799,1080,675,16777139,Tag0,unknown
1500041894294,0,-268,-5.8886718750000006E-5,57,61,60,154590,7651,734,1996,2799,1080,675,16777139,Tag0,unknown
1500041894294,0,21,4.614257812500001E-6,57,61,60,154590,7651,734,1996,2799,1080,675,16777139,Tag0,unknown
1500041894295,0,13,2.8564453125E-6,57,61,60,154590,7651,734,1996,2799,1080,675,16777139,Tag0,unknown
1500041894295,0,-264,-5.80078125E-5,57,61,60,154590,7651,734,1996,2799,1080,675,16777139,Tag0,unknown
1500041894295,0,-281,-6.17431640625E-5,57,61,60,154590,7651,734,1996,2799,1080,675,16777139,Tag0,unknown
1500041894295,0,-282,-6.1962890625E-5,57,61,60,154590,7651,734,1996,2799,1080,675,16777139,Tag0,unknown
1500041894295,0,-307,-6.74560546875E-5,57,61,60,154590,7651,734,1996,2799,1080,675,16777139,Tag0,unknown
1500041894296,0,-339,-7.448730468750001E-5,57,61,60,154590,7651,734,1996,2799,1080,675,16777139,Tag0,unknown
1500041894296,0,-338,-7.426757812499999E-5,57,61,60,154590,7651,734,1996,2799,1080,675,16777139,Tag0,unknown
1500041894296,0,-295,-6.48193359375E-5,57,61,60,154590,7651,734,1996,2799,1080,675,16777139,Tag0,unknown
1500041894296,0,-257,-5.64697265625E-5,57,61,60,154590,7651,734,1996,2799,1080,675,16777139,Tag0,unknown
1500041894297,0,16,3.515625E-6,57,61,60,154590,7651,734,1996,2799,1080,675,16777139,Tag0,unknown
1500041894297,0,28,6.15234375E-6,57,61,60,154590,7651,734,1996,2799,1080,675,16777139,Tag0,unknown
1500041894297,0,34,7.4707031250000005E-6,57,61,60,154590,7651,734,1996,2799,1080,675,16777139,Tag0,unknown
1500041894297,0,13,2.8564453125E-6,57,61,60,154590,7651,734,1996,2799,1080,675,16777139,Tag0,unknown
1500041894299,0,22,4.833984375E-6,57,61,60,154590,7651,734,1996,2799,1080,675,16777139,Tag0,unknown
1500041894299,0,69,1.51611328125E-5,57,61,60,154590,7651,734,1996,2799,1080,675,16777139,Tag0,unknown
1500041894299,0,104,2.28515625E-5,57,61,60,154590,7651,734,1996,2799,1080,675,16777139,Tag0,unknown
1500041894300,0,115,2.52685546875E-5,57,61,60,154590,7651,734,1996,2799,1080,675,16777139,Tag0,unknown
1500041894300,0,-127,-2.79052734375E-5,57,61,60,154590,7651,734,1996,2799,1080,675,16777139,Tag0,unknown
1500041894300,0,-124,-2.724609375E-5,57,61,60,154590,7651,734,1996,2799,1080,675,16777139,Tag0,unknown
1500041894300,0,-126,-2.7685546875E-5,57,61,60,154590,7651,734,1996,2799,1080,675,16777139,Tag0,unknown
1500041894300,0,109,2.39501953125E-5,57,61,60,154590,7651,734,1996,2799,1080,675,16777139,Tag0,unknown
1500041894301,0,66,1.4501953125E-5,57,61,60,154590,7651,734,1996,2799,1080,675,16777139,Tag0,unknown
1500041894301,0,54,1.1865234375000001E-5,57,61,60,154590,7651,734,1996,2799,1080,675,16777139,Tag0,unknown
1500041894301,0,96,2.109375E-5,57,61,60,154590,7651,734,1996,2799,1080,675,16777139,Tag0,unknown
1500041894304,0,-116,-2.548828125E-5,57,61,60,154590,7651,734,1996,2799,1080,675,16777139,Tag0,unknown
1500041894305,0,-116,-2.548828125E-5,57,61,60,154590,7651,734,1996,2799,1080,675,16777139,Tag0,unknown
1500041894305,0,104,2.28515625E-5,57,61,60,154590,7651,734,1996,2799,1080,675,16777139,Tag0,unknown
1500041894305,0,88,1.93359375E-5,57,61,60,154590,7651,734,1996,2799,1080,675,16777139,Tag0,unknown
1500041894305,0,112,2.4609375E-5,57,61,60,154590,7651,734,1996,2799,1080,675,16777139,Tag0,unknown
1500041894305,0,-120,-2.63671875E-5,57,61,60,154590,7651,734,1996,2799,1080,675,16777139,Tag0,unknown
1500041894305,0,-119,-2.6147460937500004E-5,57,61,60,154590,7651,734,1996,2799,1080,675,16777139,Tag0,unknown
1500041894306,0,97,2.13134765625E-5,57,61,60,154590,7651,734,1996,2799,1080,675,16777139,Tag0,unknown
1500041894306,0,57,1.2524414062500001E-5,57,61,60,154590,7651,734,1996,2799,1080,675,16777139,Tag0,unknown
1500041894306,0,67,1.4721679687500002E-5,57,61,60,154590,7651,734,1996,2799,1080,675,16777139,Tag0,unknown
1500041894306,0,114,2.5048828125000003E-5,57,61,60,154590,7651,734,1996,2799,1080,675,16777139,Tag0,unknown
1500041894306,0,-108,-2.3730468750000002E-5,57,61,60,154590,7651,734,1996,2799,1080,675,16777139,Tag0,unknown
1500041894306,0,-110,-2.4169921875E-5,57,61,60,154590,7651,734,1996,2799,1080,675,16777139,Tag0,unknown
1500041894307,0,121,2.6586914062500003E-5,57,61,60,154590,7651,734,1996,2799,1080,675,16777139,Tag0,unknown
1500041894307,0,103,2.26318359375E-5,57,61,60,154590,7651,734,1996,2799,1080,675,16777139,Tag0,unknown
1500041894307,0,116,2.548828125E-5,57,61,60,154590,7651,734,1996,2799,1080,675,16777139,Tag0,unknown
1500041894307,0,-105,-2.30712890625E-5,57,61,60,154590,7651,734,1996,2799,1080,675,16777139,Tag0,unknown
1500041894308,0,-96,-2.109375E-5,57,61,60,154590,7651,734,1996,2799,1080,675,16777139,Tag0,unknown
1500041894308,0,101,2.2192382812500002E-5,57,61,60,154590,7651,734,1996,2799,1080,675,16777139,Tag0,unknown
1500041894308,0,36,7.91015625E-6,57,61,60,154590,7651,734,1996,2799,1080,675,16777139,Tag0,unknown
1500041894308,0,23,5.0537109375E-6,57,61,60,154590,7651,734,1996,2799,1080,675,16777139,Tag0,unknown
1500041894308,0,37,8.1298828125E-6,57,61,60,154590,7651,734,1996,2799,1080,675,16777139,Tag0,unknown
1500041894308,0,50,1.0986328125E-5,57,61,60,154590,7651,734,1996,2799,1080,675,16777139,Tag0,unknown
1500041894309,0,58,1.2744140625E-5,57,61,60,154590,7651,734,1996,2799,1080,675,16777139,Tag0,unknown
1500041894309,0,66,1.4501953125E-5,57,61,60,154590,7651,734,1996,2799,1080,675,16777139,Tag0,unknown
1500041894309,0,73,1.6040039062500002E-5,57,61,60,154590,7651,734,1996,2799,1080,675,16777139,Tag0,unknown
1500041894309,0,82,1.8017578124999998E-5,57,61,60,154590,7651,734,1996,2799,1080,675,16777139,Tag0,unknown
1500041894309,0,64,1.40625E-5,57,61,60,154590,7651,734,1996,2799,1080,675,16777139,Tag0,unknown
1500041894310,0,27,5.9326171875000005E-6,57,61,60,154590,7651,734,1996,2799,1080,675,16777139,Tag0,unknown
1500041894310,0,1,2.197265625E-7,57,61,60,154590,7651,734,1996,2799,1080,675,16777139,Tag0,unknown
1500041894310,0,-264,-5.80078125E-5,57,61,60,154590,7651,734,1996,2799,1080,675,16777139,Tag0,unknown
1500041894310,0,17,3.7353515625000003E-6,57,61,60,154590,7651,734,1996,2799,1080,675,16777139,Tag0,unknown
1500041894310,0,42,9.228515625000002E-6,57,61,60,154590,7651,734,1996,2799,1080,675,16777139,Tag0,unknown
1500041894310,0,33,7.2509765625E-6,57,61,60,154590,7651,734,1996,2799,1080,675,16777139,Tag0,unknown
1500041894311,0,25,5.4931640625E-6,57,61,60,154590,7651,734,1996,2799,1080,675,16777139,Tag0,unknown
1500041894311,0,56,1.23046875E-5,57,61,60,154590,7651,734,1996,2799,1080,675,16777139,Tag0,unknown
1500041894311,0,80,1.7578125E-5,57,61,60,154590,7651,734,1996,2799,1080,675,16777139,Tag0,unknown
1500041894311,0,73,1.6040039062500002E-5,57,61,60,154590,7651,734,1996,2799,1080,675,16777139,Tag0,unknown
1500041894311,0,51,1.1206054687499999E-5,57,61,60,154590,7651,734,1996,2799,1080,675,16777139,Tag0,unknown
1500041894311,0,48,1.0546875E-5,57,61,60,154590,7651,734,1996,2799,1080,675,16777139,Tag0,unknown
1500041894312,0,57,1.2524414062500001E-5,57,61,60,154590,7651,734,1996,2799,1080,675,16777139,Tag0,unknown
1500041894312,0,49,1.07666015625E-5,57,61,60,154590,7651,734,1996,2799,1080,675,16777139,Tag0,unknown
1500041894312,0,27,5.9326171875000005E-6,57,61,60,154590,7651,734,1996,2799,1080,675,16777139,Tag0,unknown
1500041894312,0,16,3.515625E-6,57,61,60,154590,7651,734,1996,2799,1080,675,16777139,Tag0,unknown
1500041894312,0,-262,-5.7568359375E-5,57,61,60,154590,7651,734,1996,2799,1080,675,16777139,Tag0,unknown
1500041894313,0,-276,-6.064453125E-5,57,61,60,154590,7651,734,1996,2799,1080,675,16777139,Tag0,unknown
1500041894313,0,-264,-5.80078125E-5,57,61,60,154590,7651,734,1996,2799,1080,675,16777139,Tag0,unknown
1500041894313,0,8,1.7578125E-6,57,61,60,154590,7651,734,1996,2799,1080,675,16777139,Tag0,unknown
1500041894313,0,24,5.2734375E-6,57,61,60,154590,7651,734,1996,2799,1080,675,16777139,Tag0,unknown
1500041894313,0,44,9.66796875E-6,57,61,60,154590,7651,734,1996,2799,1080,675,16777139,Tag0,unknown
1500041894313,0,76,1.669921875E-5,57,61,60,154590,7651,734,1996,2799,1080,675,16777139,Tag0,unknown
1500041894314,0,96,2.109375E-5,57,61,60,154590,7651,734,1996,2799,1080,675,16777139,Tag0,unknown
1500041894328,0,82,1.8017578124999998E-5,57,61,60,154590,7651,734,1996,2799,1080,675,16777139,Tag0,unknown
1500041894346,0,40,8.7890625E-6,57,61,60,154590,7651,734,1996,2799,1080,675,16777139,Tag0,unknown
1500041894346,0,-262,-5.7568359375E-5,57,61,60,154590,7651,734,1996,2799,1080,675,16777139,Tag0,unknown
1500041894346,0,6,1.318359375E-6,57,61,60,154590,7651,734,1996,2799,1080,675,16777139,Tag0,unknown
1500041894347,0,57,1.2524414062500001E-5,57,61,60,154590,7651,734,1996,2799,1080,675,16777139,Tag0,unknown
1500041894347,0,92,2.021484375E-5,57,61,60,154590,7651,734,1996,2799,1080,675,16777139,Tag0,unknown
1500041894347,0,93,2.04345703125E-5,57,61,60,154590,7651,734,1996,2799,1080,675,16777139,Tag0,unknown
1500041894347,0,58,1.2744140625E-5,57,61,60,154590,7651,734,1996,2799,1080,675,16777139,Tag0,unknown
1500041894347,0,24,5.2734375E-6,57,61,60,154590,7651,734,1996,2799,1080,675,16777139,Tag0,unknown
1500041894348,0,20,4.39453125E-6,57,61,60,154590,7651,734,1996,2799,1080,675,16777139,Tag0,unknown
1500041894348,0,36,7.91015625E-6,57,61,60,154590,7651,734,1996,2799,1080,675,16777139,Tag0,unknown
1500041894348,0,34,7.4707031250000005E-6,57,61,60,154590,7651,734,1996,2799,1080,675,16777139,Tag0,unknown
1500041894349,0,4,8.7890625E-7,57,61,60,154590,7651,734,1996,2799,1080,675,16777139,Tag0,unknown
1500041894349,0,-290,-6.3720703125E-5,57,61,60,154590,7651,734,1996,2799,1080,675,16777139,Tag0,unknown
1500041894349,0,-293,-6.43798828125E-5,57,61,60,154590,7651,734,1996,2799,1080,675,16777139,Tag0,unknown
1500041894349,0,-263,-5.7788085937500005E-5,57,61,60,154590,7651,734,1996,2799,1080,675,16777139,Tag0,unknown
1500041894349,0,11,2.4169921875E-6,57,61,60,154590,7651,734,1996,2799,1080,675,16777139,Tag0,unknown
1500041894350,0,5,1.0986328125E-6,57,61,60,154590,7651,734,1996,2799,1080,675,16777139,Tag0,unknown
1500041894350,0,-263,-5.7788085937500005E-5,57,61,60,154590,7651,734,1996,2799,1080,675,16777139,Tag0,unknown
1500041894350,0,0,0.0,57,61,60,154590,7651,734,1996,2799,1080,675,16777139,Tag0,unknown
1500041894364,0,16,3.515625E-6,57,61,60,154590,7651,734,1996,2799,1080,675,16777139,Tag0,unknown
1500041894365,0,5,1.0986328125E-6,57,61,60,154590,7651,734,1996,2799,1080,675,16777139,Tag0,unknown
1500041894380,0,-289,-6.35009765625E-5,57,61,60,154590,7651,734,1996,2799,1080,675,16777139,Tag0,unknown
1500041894380,0,-317,-6.96533203125E-5,57,61,60,154590,7651,734,1996,2799,1080,675,16777139,Tag0,unknown
1500041894381,0,-280,-6.15234375E-5,57,61,60,154590,7651,734,1996,2799,1080,675,16777139,Tag0,unknown
1500041894381,0,74,1.6259765625E-5,57,61,60,154590,7651,734,1996,2799,1080,675,16777139,Tag0,unknown
1500041894382,0,-111,-2.43896484375E-5,57,61,60,154590,7651,734,1996,2799,1080,675,16777139,Tag0,unknown
1500041894382,0,113,2.48291015625E-5,57,61,60,154590,7651,734,1996,2799,1080,675,16777139,Tag0,unknown
1500041894382,0,41,9.008789062499999E-6,57,61,60,154590,7651,734,1996,2799,1080,675,16777139,Tag0,unknown
1500041894383,0,3,6.591796875E-7,57,61,60,154590,7651,734,1996,2799,1080,675,16777139,Tag0,unknown
1500041894383,0,33,7.2509765625E-6,57,61,60,154590,7651,734,1996,2799,1080,675,16777139,Tag0,unknown
1500041894384,0,84,1.8457031250000004E-5,57,61,60,154590,7651,734,1996,2799,1080,675,16777139,Tag0,unknown
1500041894384,0,100,2.197265625E-5,57,61,60,154590,7651,734,1996,2799,1080,675,16777139,Tag0,unknown
1500041894385,0,71,1.56005859375E-5,57,61,60,154590,7651,734,1996,2799,1080,675,16777139,Tag0,unknown
1500041894385,0,51,1.1206054687499999E-5,57,61,60,154590,7651,734,1996,2799,1080,675,16777139,Tag0,unknown
1500041894385,0,53,1.1645507812500002E-5,57,61,60,154590,7651,734,1996,2799,1080,675,16777139,Tag0,unknown
1500041894386,0,64,1.40625E-5,57,61,60,154590,7651,734,1996,2799,1080,675,16777139,Tag0,unknown
1500041894386,0,65,1.42822265625E-5,57,61,60,154590,7651,734,1996,2799,1080,675,16777139,Tag0,unknown
1500041894386,0,52,1.142578125E-5,57,61,60,154590,7651,734,1996,2799,1080,675,16777139,Tag0,unknown
1500041894386,0,65,1.42822265625E-5,57,61,60,154590,7651,734,1996,2799,1080,675,16777139,Tag0,unknown
1500041894403,0,91,1.99951171875E-5,57,61,60,154590,7651,734,1996,2799,1080,675,16777139,Tag0,unknown
1500041894414,0,107,2.35107421875E-5,57,61,60,154590,7651,734,1996,2799,1080,675,16777139,Tag0,unknown
1500041894414,0,103,2.26318359375E-5,57,61,60,154590,7651,734,1996,2799,1080,675,16777139,Tag0,unknown
1500041894415,0,101,2.2192382812500002E-5,57,61,60,154590,7651,734,1996,2799,1080,675,16777139,Tag0,unknown
1500041894416,0,115,2.52685546875E-5,57,61,60,154590,7651,734,1996,2799,1080,675,16777139,Tag0,unknown
1500041894416,0,-115,-2.52685546875E-5,57,61,60,154590,7651,734,1996,2799,1080,675,16777139,Tag0,unknown
1500041894417,0,-90,-1.9775390625E-5,57,61,60,154590,7651,734,1996,2799,1080,675,16777139,Tag0,unknown
1500041894417,0,-89,-1.95556640625E-5,57,61,60,154590,7651,734,1996,2799,1080,675,16777139,Tag0,unknown
1500041894418,0,-122,-2.6806640625E-5,57,61,60,154590,7651,734,1996,2799,1080,675,16777139,Tag0,unknown
1500041894418,0,96,2.109375E-5,57,61,60,154590,7651,734,1996,2799,1080,675,16777139,Tag0,unknown
1500041894419,0,82,1.8017578124999998E-5,57,61,60,154590,7651,734,1996,2799,1080,675,16777139,Tag0,unknown
1500041894419,0,86,1.8896484375000003E-5,57,61,60,154590,7651,734,1996,2799,1080,675,16777139,Tag0,unknown
1500041894419,0,91,1.99951171875E-5,57,61,60,154590,7651,734,1996,2799,1080,675,16777139,Tag0,unknown
1500041894420,0,83,1.82373046875E-5,57,61,60,154590,7651,734,1996,2799,1080,675,16777139,Tag0,unknown
1500041894420,0,73,1.6040039062500002E-5,57,61,60,154590,7651,734,1996,2799,1080,675,16777139,Tag0,unknown
1500041894420,0,75,1.64794921875E-5,57,61,60,154590,7651,734,1996,2799,1080,675,16777139,Tag0,unknown
1500041894420,0,72,1.58203125E-5,57,61,60,154590,7651,734,1996,2799,1080,675,16777139,Tag0,unknown
1500041894421,0,69,1.51611328125E-5,57,61,60,154590,7651,734,1996,2799,1080,675,16777139,Tag0,unknown
1500041894421,0,54,1.1865234375000001E-5,57,61,60,154590,7651,734,1996,2799,1080,675,16777139,Tag0,unknown
1500041894421,0,36,7.91015625E-6,57,61,60,154590,7651,734,1996,2799,1080,675,16777139,Tag0,unknown
1500041894436,0,37,8.1298828125E-6,57,61,60,154590,7651,734,1996,2799,1080,675,16777139,Tag0,unknown
1500041894448,0,68,1.4941406250000001E-5,57,61,60,154590,7651,734,1996,2799,1080,675,16777139,Tag0,unknown
1500041894448,0,67,1.4721679687500002E-5,57,61,60,154590,7651,734,1996,2799,1080,675,16777139,Tag0,unknown
1500041894449,0,18,3.955078125E-6,57,61,60,154590,7651,734,1996,2799,1080,675,16777139,Tag0,unknown
1500041894449,0,-264,-5.80078125E-5,57,61,60,154590,7651,734,1996,2799,1080,675,16777139,Tag0,unknown
1500041894450,0,-260,-5.712890625E-5,57,61,60,154590,7651,734,1996,2799,1080,675,16777139,Tag0,unknown
1500041894450,0,-260,-5.712890625E-5,57,61,60,154590,7651,734,1996,2799,1080,675,16777139,Tag0,unknown
1500041894450,0,-267,-5.86669921875E-5,57,61,60,154590,7651,734,1996,2799,1080,675,16777139,Tag0,unknown
1500041894451,0,-284,-6.240234375E-5,57,61,60,154590,7651,734,1996,2799,1080,675,16777139,Tag0,unknown
1500041894452,0,-305,-6.70166015625E-5,57,61,60,154590,7651,734,1996,2799,1080,675,16777139,Tag0,unknown
1500041894469,0,-293,-6.43798828125E-5,57,61,60,154590,7651,734,1996,2799,1080,675,16777139,Tag0,unknown
1500041894481,0,-264,-5.80078125E-5,57,61,60,154590,7651,734,1996,2799,1080,675,16777139,Tag0,unknown
1500041894481,0,16,3.515625E-6,57,61,60,154590,7651,734,1996,2799,1080,675,16777139,Tag0,unknown
1500041894482,0,17,3.7353515625000003E-6,57,61,60,154590,7651,734,1996,2799,1080,675,16777139,Tag0,unknown
1500041894482,0,-258,-5.6689453125000004E-5,57,61,60,154590,7651,734,1996,2799,1080,675,16777139,Tag0,unknown
1500041894483,0,2,4.39453125E-7,57,61,60,154590,7651,734,1996,2799,1080,675,16777139,Tag0,unknown
1500041894483,0,52,1.142578125E-5,57,61,60,154590,7651,734,1996,2799,1080,675,16777139,Tag0,unknown
1500041894484,0,87,1.91162109375E-5,57,61,60,154590,7651,734,1996,2799,1080,675,16777139,Tag0,unknown
1500041894484,0,68,1.4941406250000001E-5,57,61,60,154590,7651,734,1996,2799,1080,675,16777139,Tag0,unknown
1500041894484,0,13,2.8564453125E-6,57,61,60,154590,7651,734,1996,2799,1080,675,16777139,Tag0,unknown
1500041894485,0,-261,-5.73486328125E-5,57,61,60,154590,7651,734,1996,2799,1080,675,16777139,Tag0,unknown
1500041894485,0,18,3.955078125E-6,57,61,60,154590,7651,734,1996,2799,1080,675,16777139,Tag0,unknown
1500041894486,0,41,9.008789062499999E-6,57,61,60,154590,7651,734,1996,2799,1080,675,16777139,Tag0,unknown
1500041894486,0,37,8.1298828125E-6,57,61,60,154590,7651,734,1996,2799,1080,675,16777139,Tag0,unknown
1500041894487,0,20,4.39453125E-6,57,61,60,154590,7651,734,1996,2799,1080,675,16777139,Tag0,unknown
1500041894487,0,20,4.39453125E-6,57,61,60,154590,7651,734,1996,2799,1080,675,16777139,Tag0,unknown
1500041894487,0,37,8.1298828125E-6,57,61,60,154590,7651,734,1996,2799,1080,675,16777139,Tag0,unknown
1500041894487,0,54,1.1865234375000001E-5,57,61,60,154590,7651,734,1996,2799,1080,675,16777139,Tag0,unknown
1500041894488,0,51,1.1206054687499999E-5,57,61,60,154590,7651,734,1996,2799,1080,675,16777139,Tag0,unknown
1500041894488,0,36,7.91015625E-6,57,61,60,154590,7651,734,1996,2799,1080,675,16777139,Tag0,unknown
1500041894510,0,34,7.4707031250000005E-6,57,61,60,154590,7651,734,1996,2799,1080,675,16777139,Tag0,unknown
1500041894516,0,42,9.228515625000002E-6,57,61,60,154590,7651,734,1996,2799,1080,675,16777139,Tag0,unknown
1500041894516,0,44,9.66796875E-6,57,61,60,154590,7651,734,1996,2799,1080,675,16777139,Tag0,unknown
1500041894517,0,32,7.03125E-6,57,61,60,154590,7651,734,1996,2799,1080,675,16777139,Tag0,unknown
1500041894517,0,8,1.7578125E-6,57,61,60,154590,7651,734,1996,2799,1080,675,16777139,Tag0,unknown
1500041894517,0,-268,-5.8886718750000006E-5,57,61,60,154590,7651,734,1996,2799,1080,675,16777139,Tag0,unknown
1500041894518,0,-273,-5.998535156250001E-5,57,61,60,154590,7651,734,1996,2799,1080,675,16777139,Tag0,unknown
1500041894518,0,-262,-5.7568359375E-5,57,61,60,154590,7651,734,1996,2799,1080,675,16777139,Tag0,unknown
1500041894519,0,27,5.9326171875000005E-6,57,61,60,154590,7651,734,1996,2799,1080,675,16777139,Tag0,unknown
1500041894520,0,53,1.1645507812500002E-5,48,70,60,112233,30685,16460,28013,9570,4216,4555,2132,Tag0,unknown
1500041894520,0,56,1.23046875E-5,48,70,60,112233,30685,16460,28013,9570,4216,4555,2132,Tag0,unknown
1500041894520,0,66,1.4501953125E-5,48,70,60,112233,30685,16460,28013,9570,4216,4555,2132,Tag0,unknown
1500041894521,0,89,1.95556640625E-5,48,70,60,112233,30685,16460,28013,9570,4216,4555,2132,Tag0,unknown
1500041894521,0,100,2.197265625E-5,48,70,60,112233,30685,16460,28013,9570,4216,4555,2132,Tag0,unknown
1500041894521,0,89,1.95556640625E-5,48,70,60,112233,30685,16460,28013,9570,4216,4555,2132,Tag0,unknown
1500041894535,0,59,1.29638671875E-5,48,70,60,112233,30685,16460,28013,9570,4216,4555,2132,Tag0,unknown
1500041894535,0,55,1.20849609375E-5,48,70,60,112233,30685,16460,28013,9570,4216,4555,2132,Tag0,unknown
1500041894536,0,73,1.6040039062500002E-5,48,70,60,112233,30685,16460,28013,9570,4216,4555,2132,Tag0,unknown
1500041894536,0,75,1.64794921875E-5,48,70,60,112233,30685,16460,28013,9570,4216,4555,2132,Tag0,unknown
1500041894537,0,51,1.1206054687499999E-5,48,70,60,112233,30685,16460,28013,9570,4216,4555,2132,Tag0,unknown
1500041894537,0,13,2.8564453125E-6,48,70,60,112233,30685,16460,28013,9570,4216,4555,2132,Tag0,unknown
1500041894538,0,-261,-5.73486328125E-5,48,70,60,112233,30685,16460,28013,9570,4216,4555,2132,Tag0,unknown
1500041894538,0,6,1.318359375E-6,48,70,60,112233,30685,16460,28013,9570,4216,4555,2132,Tag0,unknown
1500041894538,0,36,7.91015625E-6,48,70,60,112233,30685,16460,28013,9570,4216,4555,2132,Tag0,unknown
1500041894539,0,38,8.349609375E-6,48,70,60,112233,30685,16460,28013,9570,4216,4555,2132,Tag0,unknown
1500041894551,0,24,5.2734375E-6,48,70,60,112233,30685,16460,28013,9570,4216,4555,2132,Tag0,unknown
1500041894565,0,34,7.4707031250000005E-6,48,70,60,112233,30685,16460,28013,9570,4216,4555,2132,Tag0,unknown
1500041894566,0,81,1.77978515625E-5,48,70,60,112233,30685,16460,28013,9570,4216,4555,2132,Tag0,unknown
1500041894566,0,124,2.724609375E-5,48,70,60,112233,30685,16460,28013,9570,4216,4555,2132,Tag0,unknown
1500041894567,0,-88,-1.93359375E-5,48,70,60,112233,30685,16460,28013,9570,4216,4555,2132,Tag0,unknown
1500041894567,0,-35,-7.6904296875E-6,48,70,60,112233,30685,16460,28013,9570,4216,4555,2132,Tag0,unknown
1500041894568,0,294,6.4599609375E-5,48,70,60,112233,30685,16460,28013,9570,4216,4555,2132,Tag0,unknown
1500041894569,0,372,8.173828125E-5,48,70,60,112233,30685,16460,28013,9570,4216,4555,2132,Tag0,unknown
1500041894569,0,209,4.59228515625E-5,48,70,60,112233,30685,16460,28013,9570,4216,4555,2132,Tag0,unknown
1500041894570,0,571,1.254638671875E-4,48,70,60,112233,30685,16460,28013,9570,4216,4555,2132,Tag0,unknown
1500041894570,0,402,8.8330078125E-5,48,70,60,112233,30685,16460,28013,9570,4216,4555,2132,Tag0,unknown
1500041894570,0,450,9.8876953125E-5,48,70,60,112233,30685,16460,28013,9570,4216,4555,2132,Tag0,unknown
1500041894571,0,480,1.0546875E-4,48,70,60,112233,30685,16460,28013,9570,4216,4555,2132,Tag0,unknown
1500041894571,0,485,1.065673828125E-4,48,70,60,112233,30685,16460,28013,9570,4216,4555,2132,Tag0,unknown
1500041894571,0,472,1.037109375E-4,48,70,60,112233,30685,16460,28013,9570,4216,4555,2132,Tag0,unknown
1500041894571,0,453,9.95361328125E-5,48,70,60,112233,30685,16460,28013,9570,4216,4555,2132,Tag0,unknown
1500041894571,0,421,9.25048828125E-5,48,70,60,112233,30685,16460,28013,9570,4216,4555,2132,Tag0,unknown
1500041894572,0,395,8.67919921875E-5,48,70,60,112233,30685,16460,28013,9570,4216,4555,2132,Tag0,unknown
1500041894572,0,402,8.8330078125E-5,48,70,60,112233,30685,16460,28013,9570,4216,4555,2132,Tag0,unknown
1500041894572,0,387,8.50341796875E-5,48,70,60,112233,30685,16460,28013,9570,4216,4555,2132,Tag0,unknown
1500041894588,0,595,1.307373046875E-4,48,70,60,112233,30685,16460,28013,9570,4216,4555,2132,Tag0,unknown
1500041894599,0,557,1.223876953125E-4,48,70,60,112233,30685,16460,28013,9570,4216,4555,2132,Tag0,unknown
1500041894599,0,553,1.215087890625E-4,48,70,60,112233,30685,16460,28013,9570,4216,4555,2132,Tag0,unknown
1500041894600,0,567,1.245849609375E-4,48,70,60,112233,30685,16460,28013,9570,4216,4555,2132,Tag0,unknown
1500041894600,0,568,1.248046875E-4,48,70,60,112233,30685,16460,28013,9570,4216,4555,2132,Tag0,unknown
1500041894601,0,539,1.1843261718750001E-4,48,70,60,112233,30685,16460,28013,9570,4216,4555,2132,Tag0,unknown
1500041894601,0,229,5.03173828125E-5,48,70,60,112233,30685,16460,28013,9570,4216,4555,2132,Tag0,unknown
1500041894602,0,197,4.32861328125E-5,48,70,60,112233,30685,16460,28013,9570,4216,4555,2132,Tag0,unknown
1500041894602,0,199,4.3725585937499995E-5,48,70,60,112233,30685,16460,28013,9570,4216,4555,2132,Tag0,unknown
1500041894603,0,193,4.2407226562500005E-5,48,70,60,112233,30685,16460,28013,9570,4216,4555,2132,Tag0,unknown
1500041894603,0,132,2.900390625E-5,48,70,60,112233,30685,16460,28013,9570,4216,4555,2132,Tag0,unknown
1500041894604,0,307,6.74560546875E-5,48,70,60,112233,30685,16460,28013,9570,4216,4555,2132,Tag0,unknown
1500041894604,0,262,5.7568359375E-5,48,70,60,112233,30685,16460,28013,9570,4216,4555,2132,Tag0,unknown
1500041894604,0,290,6.3720703125E-5,48,70,60,112233,30685,16460,28013,9570,4216,4555,2132,Tag0,unknown
1500041894605,0,348,7.646484375E-5,48,70,60,112233,30685,16460,28013,9570,4216,4555,2132,Tag0,unknown
1500041894605,0,371,8.151855468750001E-5,48,70,60,112233,30685,16460,28013,9570,4216,4555,2132,Tag0,unknown
1500041894605,0,313,6.87744140625E-5,48,70,60,112233,30685,16460,28013,9570,4216,4555,2132,Tag0,unknown
1500041894605,0,-10,-2.197265625E-6,48,70,60,112233,30685,16460,28013,9570,4216,4555,2132,Tag0,unknown
1500041894606,0,256,5.625E-5,48,70,60,112233,30685,16460,28013,9570,4216,4555,2132,Tag0,unknown
1500041894606,0,295,6.48193359375E-5,48,70,60,112233,30685,16460,28013,9570,4216,4555,2132,Tag0,unknown
1500041894628,0,299,6.56982421875E-5,48,70,60,112233,30685,16460,28013,9570,4216,4555,2132,Tag0,unknown
1500041894633,0,272,5.9765625000000004E-5,48,70,60,112233,30685,16460,28013,9570,4216,4555,2132,Tag0,unknown
1500041894634,0,-5,-1.0986328125E-6,48,70,60,112233,30685,16460,28013,9570,4216,4555,2132,Tag0,unknown
1500041894634,0,264,5.80078125E-5,48,70,60,112233,30685,16460,28013,9570,4216,4555,2132,Tag0,unknown
1500041894635,0,274,6.0205078124999997E-5,48,70,60,112233,30685,16460,28013,9570,4216,4555,2132,Tag0,unknown
1500041894635,0,-16,-3.515625E-6,48,70,60,112233,30685,16460,28013,9570,4216,4555,2132,Tag0,unknown
1500041894636,0,-86,-1.8896484375000003E-5,48,70,56,112233,30685,16460,28013,9570,4216,4555,2132,Tag0,unknown
1500041894637,0,118,2.5927734375E-5,48,70,56,112233,30685,16460,28013,9570,4216,4555,2132,Tag0,unknown
1500041894637,0,116,2.548828125E-5,48,70,56,112233,30685,16460,28013,9570,4216,4555,2132,Tag0,unknown
1500041894638,0,-123,-2.70263671875E-5,48,70,56,112233,30685,16460,28013,9570,4216,4555,2132,Tag0,unknown
1500041894638,0,-91,-1.99951171875E-5,48,70,56,112233,30685,16460,28013,9570,4216,4555,2132,Tag0,unknown
1500041894638,0,-87,-1.91162109375E-5,48,70,56,112233,30685,16460,28013,9570,4216,4555,2132,Tag0,unknown
1500041894639,0,124,2.724609375E-5,48,70,56,112233,30685,16460,28013,9570,4216,4555,2132,Tag0,unknown
1500041894639,0,72,1.58203125E-5,48,70,56,112233,30685,16460,28013,9570,4216,4555,2132,Tag0,unknown
1500041894639,0,54,1.1865234375000001E-5,48,70,56,112233,30685,16460,28013,9570,4216,4555,2132,Tag0,unknown
1500041894639,0,48,1.0546875E-5,48,70,56,112233,30685,16460,28013,9570,4216,4555,2132,Tag0,unknown
1500041894639,0,13,2.8564453125E-6,48,70,56,112233,30685,16460,28013,9570,4216,4555,2132,Tag0,unknown
1500041894640,0,-275,-6.04248046875E-5,48,70,56,112233,30685,16460,28013,9570,4216,4555,2132,Tag0,unknown
1500041894640,0,3,6.591796875E-7,48,70,56,112233,30685,16460,28013,9570,4216,4555,2132,Tag0,unknown
1500041894640,0,58,1.2744140625E-5,48,70,56,112233,30685,16460,28013,9570,4216,4555,2132,Tag0,unknown
1500041894665,0,85,1.86767578125E-5,48,70,56,112233,30685,16460,28013,9570,4216,4555,2132,Tag0,unknown
1500041894683,0,69,1.51611328125E-5,48,70,56,112233,30685,16460,28013,9570,4216,4555,2132,Tag0,unknown
1500041894684,0,40,8.7890625E-6,48,70,56,112233,30685,16460,28013,9570,4216,4555,2132,Tag0,unknown
1500041894684,0,26,5.712890625E-6,48,70,56,112233,30685,16460,28013,9570,4216,4555,2132,Tag0,unknown
1500041894684,0,28,6.15234375E-6,48,70,56,112233,30685,16460,28013,9570,4216,4555,2132,Tag0,unknown
1500041894685,0,57,1.2524414062500001E-5,48,70,56,112233,30685,16460,28013,9570,4216,4555,2132,Tag0,unknown
1500041894685,0,66,1.4501953125E-5,48,70,56,112233,30685,16460,28013,9570,4216,4555,2132,Tag0,unknown
1500041894686,0,20,4.39453125E-6,48,70,56,112233,30685,16460,28013,9570,4216,4555,2132,Tag0,unknown
1500041894686,0,-275,-6.04248046875E-5,48,70,56,112233,30685,16460,28013,9570,4216,4555,2132,Tag0,unknown
1500041894687,0,-276,-6.064453125E-5,48,70,56,112233,30685,16460,28013,9570,4216,4555,2132,Tag0,unknown
1500041894687,0,-277,-6.0864257812500005E-5,48,70,56,112233,30685,16460,28013,9570,4216,4555,2132,Tag0,unknown
1500041894688,0,-286,-6.2841796875E-5,48,70,56,112233,30685,16460,28013,9570,4216,4555,2132,Tag0,unknown
1500041894688,0,-275,-6.04248046875E-5,48,70,56,112233,30685,16460,28013,9570,4216,4555,2132,Tag0,unknown
1500041894688,0,10,2.197265625E-6,48,70,56,112233,30685,16460,28013,9570,4216,4555,2132,Tag0,unknown
1500041894689,0,45,9.8876953125E-6,48,70,56,112233,30685,16460,28013,9570,4216,4555,2132,Tag0,unknown
1500041894689,0,64,1.40625E-5,48,70,56,112233,30685,16460,28013,9570,4216,4555,2132,Tag0,unknown
1500041894689,0,59,1.29638671875E-5,48,70,56,112233,30685,16460,28013,9570,4216,4555,2132,Tag0,unknown
1500041894689,0,23,5.0537109375E-6,48,70,56,112233,30685,16460,28013,9570,4216,4555,2132,Tag0,unknown
1500041894689,0,-259,-5.69091796875E-5,48,70,56,112233,30685,16460,28013,9570,4216,4555,2132,Tag0,unknown
1500041894690,0,-257,-5.64697265625E-5,48,70,56,112233,30685,16460,28013,9570,4216,4555,2132,Tag0,unknown
1500041894703,0,18,3.955078125E-6,48,70,56,112233,30685,16460,28013,9570,4216,4555,2132,Tag0,unknown
1500041894717,0,16,3.515625E-6,48,70,56,112233,30685,16460,28013,9570,4216,4555,2132,Tag0,unknown
1500041894718,0,-260,-5.712890625E-5,48,70,56,112233,30685,16460,28013,9570,4216,4555,2132,Tag0,unknown
1500041894718,0,-282,-6.1962890625E-5,48,70,56,112233,30685,16460,28013,9570,4216,4555,2132,Tag0,unknown
1500041894719,0,-299,-6.56982421875E-5,48,70,56,112233,30685,16460,28013,9570,4216,4555,2132,Tag0,unknown
1500041894719,0,-306,-6.723632812500001E-5,48,70,56,112233,30685,16460,28013,9570,4216,4555,2132,Tag0,unknown
1500041894720,0,-324,-7.119140625E-5,48,70,56,112233,30685,16460,28013,9570,4216,4555,2132,Tag0,unknown
1500041894720,0,-342,-7.5146484375E-5,48,70,56,112233,30685,16460,28013,9570,4216,4555,2132,Tag0,unknown
1500041894721,0,-330,-7.2509765625E-5,48,70,56,112233,30685,16460,28013,9570,4216,4555,2132,Tag0,unknown
1500041894721,0,-308,-6.767578125E-5,48,70,56,112233,30685,16460,28013,9570,4216,4555,2132,Tag0,unknown
1500041894722,0,-311,-6.833496093750001E-5,48,70,56,112233,30685,16460,28013,9570,4216,4555,2132,Tag0,unknown
1500041894722,0,-345,-7.58056640625E-5,48,70,56,112233,30685,16460,28013,9570,4216,4555,2132,Tag0,unknown
1500041894722,0,-377,-8.28369140625E-5,48,70,56,112233,30685,16460,28013,9570,4216,4555,2132,Tag0,unknown
1500041894723,0,-135,-2.96630859375E-5,48,70,56,112233,30685,16460,28013,9570,4216,4555,2132,Tag0,unknown
1500041894723,0,-359,-7.88818359375E-5,48,70,56,112233,30685,16460,28013,9570,4216,4555,2132,Tag0,unknown
1500041894723,0,-329,-7.229003906250001E-5,48,70,56,112233,30685,16460,28013,9570,4216,4555,2132,Tag0,unknown
1500041894723,0,-337,-7.40478515625E-5,48,70,56,112233,30685,16460,28013,9570,4216,4555,2132,Tag0,unknown
1500041894724,0,-348,-7.646484375E-5,48,70,56,112233,30685,16460,28013,9570,4216,4555,2132,Tag0,unknown
1500041894724,0,-355,-7.80029296875E-5,48,70,56,112233,30685,16460,28013,9570,4216,4555,2132,Tag0,unknown
1500041894724,0,-350,-7.6904296875E-5,48,70,56,112233,30685,16460,28013,9570,4216,4555,2132,Tag0,unknown
1500041894737,0,-347,-7.62451171875E-5,48,70,56,112233,30685,16460,28013,9570,4216,4555,2132,Tag0,unknown
1500041894751,0,-359,-7.88818359375E-5,48,70,56,112233,30685,16460,28013,9570,4216,4555,2132,Tag0,unknown
1500041894751,0,-362,-7.954101562500001E-5,48,70,56,112233,30685,16460,28013,9570,4216,4555,2132,Tag0,unknown
1500041894751,0,-343,-7.53662109375E-5,48,70,56,112233,30685,16460,28013,9570,4216,4555,2132,Tag0,unknown
1500041894752,0,-307,-6.74560546875E-5,48,70,56,112233,30685,16460,28013,9570,4216,4555,2132,Tag0,unknown
1500041894752,0,-269,-5.9106445312499996E-5,48,70,56,112233,30685,16460,28013,9570,4216,4555,2132,Tag0,unknown
1500041894753,0,5,1.0986328125E-6,48,70,56,112233,30685,16460,28013,9570,4216,4555,2132,Tag0,unknown
1500041894753,0,6,1.318359375E-6,48,70,56,112233,30685,16460,28013,9570,4216,4555,2132,Tag0,unknown
1500041894754,0,-270,-5.9326171875E-5,48,70,56,112233,30685,16460,28013,9570,4216,4555,2132,Tag0,unknown
1500041894754,0,-290,-6.3720703125E-5,48,70,56,112233,30685,16460,28013,9570,4216,4555,2132,Tag0,unknown
1500041894770,0,-278,-6.108398437500001E-5,48,70,56,112233,30685,16460,28013,9570,4216,4555,2132,Tag0,unknown
1500041894785,0,3,6.591796875E-7,48,70,56,112233,30685,16460,28013,9570,4216,4555,2132,Tag0,unknown
1500041894785,0,2,4.39453125E-7,48,70,56,112233,30685,16460,28013,9570,4216,4555,2132,Tag0,unknown
1500041894786,0,-268,-5.8886718750000006E-5,48,70,56,112233,30685,16460,28013,9570,4216,4555,2132,Tag0,unknown
1500041894786,0,-279,-6.13037109375E-5,48,70,56,112233,30685,16460,28013,9570,4216,4555,2132,Tag0,unknown
1500041894787,0,-268,-5.8886718750000006E-5,48,70,56,112233,30685,16460,28013,9570,4216,4555,2132,Tag0,unknown
1500041894787,0,0,0.0,48,70,56,112233,30685,16460,28013,9570,4216,4555,2132,Tag0,unknown
1500041894787,0,17,3.7353515625000003E-6,48,70,56,112233,30685,16460,28013,9570,4216,4555,2132,Tag0,unknown
1500041894788,0,22,4.833984375E-6,48,70,56,112233,30685,16460,28013,9570,4216,4555,2132,Tag0,unknown
1500041894789,0,22,4.833984375E-6,48,70,56,112233,30685,16460,28013,9570,4216,4555,2132,Tag0,unknown
1500041894789,0,44,9.66796875E-6,48,70,56,112233,30685,16460,28013,9570,4216,4555,2132,Tag0,unknown
1500041894789,0,55,1.20849609375E-5,48,70,56,112233,30685,16460,28013,9570,4216,4555,2132,Tag0,unknown
1500041894790,0,32,7.03125E-6,48,70,56,112233,30685,16460,28013,9570,4216,4555,2132,Tag0,unknown
1500041894790,0,-259,-5.69091796875E-5,48,70,56,112233,30685,16460,28013,9570,4216,4555,2132,Tag0,unknown
1500041894790,0,-299,-6.56982421875E-5,48,70,56,112233,30685,16460,28013,9570,4216,4555,2132,Tag0,unknown
1500041894790,0,-317,-6.96533203125E-5,48,70,56,112233,30685,16460,28013,9570,4216,4555,2132,Tag0,unknown
1500041894791,0,-293,-6.43798828125E-5,48,70,56,112233,30685,16460,28013,9570,4216,4555,2132,Tag0,unknown
1500041894791,0,-263,-5.7788085937500005E-5,48,70,56,112233,30685,16460,28013,9570,4216,4555,2132,Tag0,unknown
1500041894791,0,-262,-5.7568359375E-5,48,70,56,112233,30685,16460,28013,9570,4216,4555,2132,Tag0,unknown
1500041894792,0,-296,-6.50390625E-5,48,70,56,112233,30685,16460,28013,9570,4216,4555,2132,Tag0,unknown
1500041894807,0,-309,-6.78955078125E-5,48,70,56,112233,30685,16460,28013,9570,4216,4555,2132,Tag0,unknown
1500041894818,0,-270,-5.9326171875E-5,48,70,56,112233,30685,16460,28013,9570,4216,4555,2132,Tag0,unknown
1500041894819,0,6,1.318359375E-6,48,70,56,112233,30685,16460,28013,9570,4216,4555,2132,Tag0,unknown
1500041894819,0,1,2.197265625E-7,48,70,56,112233,30685,16460,28013,9570,4216,4555,2132,Tag0,unknown
1500041894820,0,-258,-5.6689453125000004E-5,48,70,56,112233,30685,16460,28013,9570,4216,4555,2132,Tag0,unknown
1500041894820,0,22,4.833984375E-6,48,70,56,112233,30685,16460,28013,9570,4216,4555,2132,Tag0,unknown
1500041894820,0,40,8.7890625E-6,48,70,56,112233,30685,16460,28013,9570,4216,4555,2132,Tag0,unknown
1500041894821,0,22,4.833984375E-6,48,70,56,112233,30685,16460,28013,9570,4216,4555,2132,Tag0,unknown
1500041894821,0,-258,-5.6689453125000004E-5,48,70,56,112233,30685,16460,28013,9570,4216,4555,2132,Tag0,unknown
1500041894822,0,-274,-6.0205078124999997E-5,48,70,56,112233,30685,16460,28013,9570,4216,4555,2132,Tag0,unknown
1500041894822,0,-264,-5.80078125E-5,48,70,56,112233,30685,16460,28013,9570,4216,4555,2132,Tag0,unknown
1500041894823,0,13,2.8564453125E-6,48,70,56,112233,30685,16460,28013,9570,4216,4555,2132,Tag0,unknown
1500041894823,0,53,1.1645507812500002E-5,48,70,56,112233,30685,16460,28013,9570,4216,4555,2132,Tag0,unknown
1500041894824,0,75,1.64794921875E-5,48,70,56,112233,30685,16460,28013,9570,4216,4555,2132,Tag0,unknown
1500041894824,0,35,7.6904296875E-6,48,70,56,112233,30685,16460,28013,9570,4216,4555,2132,Tag0,unknown
1500041894824,0,-289,-6.35009765625E-5,48,70,56,112233,30685,16460,28013,9570,4216,4555,2132,Tag0,unknown
1500041894824,0,-316,-6.943359375000001E-5,48,70,56,112233,30685,16460,28013,9570,4216,4555,2132,Tag0,unknown
1500041894824,0,-308,-6.767578125E-5,48,70,56,112233,30685,16460,28013,9570,4216,4555,2132,Tag0,unknown
1500041894825,0,-281,-6.17431640625E-5,48,70,56,112233,30685,16460,28013,9570,4216,4555,2132,Tag0,unknown
1500041894825,0,-281,-6.17431640625E-5,48,70,56,112233,30685,16460,28013,9570,4216,4555,2132,Tag0,unknown
1500041894843,0,-283,-6.218261718750001E-5,48,70,56,112233,30685,16460,28013,9570,4216,4555,2132,Tag0,unknown
1500041894852,0,-277,-6.0864257812500005E-5,48,70,56,112233,30685,16460,28013,9570,4216,4555,2132,Tag0,unknown
1500041894852,0,-257,-5.64697265625E-5,48,70,56,112233,30685,16460,28013,9570,4216,4555,2132,Tag0,unknown
1500041894853,0,18,3.955078125E-6,48,70,56,112233,30685,16460,28013,9570,4216,4555,2132,Tag0,unknown
1500041894853,0,8,1.7578125E-6,48,70,56,112233,30685,16460,28013,9570,4216,4555,2132,Tag0,unknown
1500041894853,0,-259,-5.69091796875E-5,48,70,56,112233,30685,16460,28013,9570,4216,4555,2132,Tag0,unknown
1500041894854,0,5,1.0986328125E-6,48,70,56,112233,30685,16460,28013,9570,4216,4555,2132,Tag0,unknown
1500041894854,0,20,4.39453125E-6,48,70,56,112233,30685,16460,28013,9570,4216,4555,2132,Tag0,unknown
1500041894855,0,12,2.63671875E-6,48,70,56,112233,30685,16460,28013,9570,4216,4555,2132,Tag0,unknown
1500041894855,0,-282,-6.1962890625E-5,48,70,56,112233,30685,16460,28013,9570,4216,4555,2132,Tag0,unknown
1500041894855,0,-329,-7.229003906250001E-5,48,70,56,112233,30685,16460,28013,9570,4216,4555,2132,Tag0,unknown
1500041894856,0,-356,-7.822265625E-5,48,70,56,112233,30685,16460,28013,9570,4216,4555,2132,Tag0,unknown
1500041894856,0,-136,-2.9882812500000002E-5,48,70,56,112233,30685,16460,28013,9570,4216,4555,2132,Tag0,unknown
1500041894857,0,-205,-4.50439453125E-5,48,70,56,112233,30685,16460,28013,9570,4216,4555,2132,Tag0,unknown
1500041894857,0,-525,-1.153564453125E-4,48,70,56,112233,30685,16460,28013,9570,4216,4555,2132,Tag0,unknown
1500041894858,0,-545,-1.197509765625E-4,48,70,56,112233,30685,16460,28013,9570,4216,4555,2132,Tag0,unknown
1500041894858,0,-514,-1.12939453125E-4,48,70,56,112233,30685,16460,28013,9570,4216,4555,2132,Tag0,unknown
1500041894858,0,-215,-4.72412109375E-5,48,70,56,112233,30685,16460,28013,9570,4216,4555,2132,Tag0,unknown
1500041894858,0,-164,-3.6035156249999995E-5,48,70,56,112233,30685,16460,28013,9570,4216,4555,2132,Tag0,unknown
1500041894859,0,-142,-3.1201171875E-5,48,70,56,112233,30685,16460,28013,9570,4216,4555,2132,Tag0,unknown
1500041894879,0,-153,-3.3618164062500004E-5,48,70,56,112233,30685,16460,28013,9570,4216,4555,2132,Tag0,unknown
1500041894886,0,-375,-8.23974609375E-5,48,70,56,112233,30685,16460,28013,9570,4216,4555,2132,Tag0,unknown
1500041894886,0,-306,-6.723632812500001E-5,48,70,56,112233,30685,16460,28013,9570,4216,4555,2132,Tag0,unknown
1500041894887,0,8,1.7578125E-6,48,70,56,112233,30685,16460,28013,9570,4216,4555,2132,Tag0,unknown
1500041894887,0,38,8.349609375E-6,48,70,56,112233,30685,16460,28013,9570,4216,4555,2132,Tag0,unknown
1500041894887,0,38,8.349609375E-6,48,70,56,112233,30685,16460,28013,9570,4216,4555,2132,Tag0,unknown
1500041894888,0,42,9.228515625000002E-6,48,70,56,112233,30685,16460,28013,9570,4216,4555,2132,Tag0,unknown
1500041894888,0,56,1.23046875E-5,48,70,56,112233,30685,16460,28013,9570,4216,4555,2132,Tag0,unknown
1500041894889,0,56,1.23046875E-5,48,70,56,112233,30685,16460,28013,9570,4216,4555,2132,Tag0,unknown
1500041894889,0,22,4.833984375E-6,48,70,56,112233,30685,16460,28013,9570,4216,4555,2132,Tag0,unknown
1500041894890,0,-283,-6.218261718750001E-5,48,70,56,112233,30685,16460,28013,9570,4216,4555,2132,Tag0,unknown
1500041894890,0,-306,-6.723632812500001E-5,48,70,56,112233,30685,16460,28013,9570,4216,4555,2132,Tag0,unknown
1500041894890,0,-281,-6.17431640625E-5,48,70,56,112233,30685,16460,28013,9570,4216,4555,2132,Tag0,unknown
1500041894891,0,11,2.4169921875E-6,48,70,56,112233,30685,16460,28013,9570,4216,4555,2132,Tag0,unknown
1500041894891,0,27,5.9326171875000005E-6,48,70,56,112233,30685,16460,28013,9570,4216,4555,2132,Tag0,unknown
1500041894891,0,5,1.0986328125E-6,48,70,56,112233,30685,16460,28013,9570,4216,4555,2132,Tag0,unknown
1500041894891,0,-266,-5.8447265625E-5,48,70,56,112233,30685,16460,28013,9570,4216,4555,2132,Tag0,unknown
1500041894892,0,-270,-5.9326171875E-5,48,70,56,112233,30685,16460,28013,9570,4216,4555,2132,Tag0,unknown
1500041894892,0,-309,-6.78955078125E-5,48,70,56,112233,30685,16460,28013,9570,4216,4555,2132,Tag0,unknown
1500041894892,0,-358,-7.8662109375E-5,48,70,56,112233,30685,16460,28013,9570,4216,4555,2132,Tag0,unknown
1500041894917,0,-148,-3.251953125E-5,48,70,56,112233,30685,16460,28013,9570,4216,4555,2132,Tag0,unknown
1500041894936,0,-149,-3.27392578125E-5,48,70,56,112233,30685,16460,28013,9570,4216,4555,2132,Tag0,unknown
1500041894936,0,-354,-7.778320312500001E-5,48,70,56,112233,30685,16460,28013,9570,4216,4555,2132,Tag0,unknown
1500041894937,0,-307,-6.74560546875E-5,48,70,56,112233,30685,16460,28013,9570,4216,4555,2132,Tag0,unknown
1500041894937,0,-309,-6.78955078125E-5,48,70,56,112233,30685,16460,28013,9570,4216,4555,2132,Tag0,unknown
1500041894938,0,-137,-3.0102539062499998E-5,48,70,56,112233,30685,16460,28013,9570,4216,4555,2132,Tag0,unknown
1500041894938,0,-238,-5.229492187500001E-5,48,70,56,112233,30685,16460,28013,9570,4216,4555,2132,Tag0,unknown
1500041894938,0,-535,-1.175537109375E-4,48,70,56,112233,30685,16460,28013,9570,4216,4555,2132,Tag0,unknown
1500041894939,0,-519,-1.140380859375E-4,48,70,56,112233,30685,16460,28013,9570,4216,4555,2132,Tag0,unknown
1500041894939,0,-182,-3.9990234375E-5,48,70,56,112233,30685,16460,28013,9570,4216,4555,2132,Tag0,unknown
1500041894954,0,-374,-8.2177734375E-5,48,70,56,112233,30685,16460,28013,9570,4216,4555,2132,Tag0,unknown
1500041894954,0,-353,-7.75634765625E-5,48,70,56,112233,30685,16460,28013,9570,4216,4555,2132,Tag0,unknown
1500041894954,0,-358,-7.8662109375E-5,48,70,56,112233,30685,16460,28013,9570,4216,4555,2132,Tag0,unknown
1500041894955,0,-360,-7.91015625E-5,48,70,56,112233,30685,16460,28013,9570,4216,4555,2132,Tag0,unknown
1500041894955,0,-334,-7.338867187500001E-5,48,70,56,112233,30685,16460,28013,9570,4216,4555,2132,Tag0,unknown
1500041894956,0,-278,-6.108398437500001E-5,48,70,56,112233,30685,16460,28013,9570,4216,4555,2132,Tag0,unknown
1500041894956,0,55,1.20849609375E-5,48,70,56,112233,30685,16460,28013,9570,4216,4555,2132,Tag0,unknown
1500041894957,0,-118,-2.5927734375E-5,48,70,56,112233,30685,16460,28013,9570,4216,4555,2132,Tag0,unknown
1500041894957,0,-71,-1.56005859375E-5,48,70,56,112233,30685,16460,28013,9570,4216,4555,2132,Tag0,unknown
1500041894958,0,-83,-1.82373046875E-5,48,70,56,112233,30685,16460,28013,9570,4216,4555,2132,Tag0,unknown
1500041894958,0,-126,-2.7685546875E-5,48,70,56,112233,30685,16460,28013,9570,4216,4555,2132,Tag0,unknown
1500041894959,0,80,1.7578125E-5,48,70,56,112233,30685,16460,28013,9570,4216,4555,2132,Tag0,unknown
1500041894959,0,66,1.4501953125E-5,48,70,56,112233,30685,16460,28013,9570,4216,4555,2132,Tag0,unknown
1500041894970,0,84,1.8457031250000004E-5,48,70,56,112233,30685,16460,28013,9570,4216,4555,2132,Tag0,unknown
1500041894970,0,87,1.91162109375E-5,48,70,56,112233,30685,16460,28013,9570,4216,4555,2132,Tag0,unknown
1500041894971,0,16,3.515625E-6,48,70,56,112233,30685,16460,28013,9570,4216,4555,2132,Tag0,unknown
1500041894971,0,-353,-7.75634765625E-5,48,70,56,112233,30685,16460,28013,9570,4216,4555,2132,Tag0,unknown
1500041894971,0,-359,-7.88818359375E-5,48,70,56,112233,30685,16460,28013,9570,4216,4555,2132,Tag0,unknown
1500041894972,0,-264,-5.80078125E-5,48,70,56,112233,30685,16460,28013,9570,4216,4555,2132,Tag0,unknown
1500041894972,0,73,1.6040039062500002E-5,48,70,56,112233,30685,16460,28013,9570,4216,4555,2132,Tag0,unknown
1500041894989,0,75,1.64794921875E-5,48,70,56,112233,30685,16460,28013,9570,4216,4555,2132,Tag0,unknown
1500041895004,0,-269,-5.9106445312499996E-5,48,70,56,112233,30685,16460,28013,9570,4216,4555,2132,Tag0,unknown
1500041895004,0,-370,-8.1298828125E-5,48,70,56,112233,30685,16460,28013,9570,4216,4555,2132,Tag0,unknown
1500041895005,0,-146,-3.2080078125000004E-5,48,70,56,112233,30685,16460,28013,9570,4216,4555,2132,Tag0,unknown
1500041895005,0,-347,-7.62451171875E-5,48,70,56,112233,30685,16460,28013,9570,4216,4555,2132,Tag0,unknown
1500041895005,0,-305,-6.70166015625E-5,48,70,56,112233,30685,16460,28013,9570,4216,4555,2132,Tag0,unknown
1500041895006,0,-306,-6.723632812500001E-5,48,70,56,112233,30685,16460,28013,9570,4216,4555,2132,Tag0,unknown
1500041895006,0,-297,-6.525878906250001E-5,48,70,56,112233,30685,16460,28013,9570,4216,4555,2132,Tag0,unknown
1500041895007,0,-263,-5.7788085937500005E-5,48,70,56,112233,30685,16460,28013,9570,4216,4555,2132,Tag0,unknown
1500041895007,0,13,2.8564453125E-6,48,70,56,112233,30685,16460,28013,9570,4216,4555,2132,Tag0,unknown
1500041895007,0,17,3.7353515625000003E-6,48,70,56,112233,30685,16460,28013,9570,4216,4555,2132,Tag0,unknown
1500041895008,0,5,1.0986328125E-6,48,70,56,112233,30685,16460,28013,9570,4216,4555,2132,Tag0,unknown
1500041895008,0,-257,-5.64697265625E-5,48,70,56,112233,30685,16460,28013,9570,4216,4555,2132,Tag0,unknown
1500041895009,0,22,4.833984375E-6,48,70,56,112233,30685,16460,28013,9570,4216,4555,2132,Tag0,unknown
1500041895009,0,44,9.66796875E-6,48,70,56,112233,30685,16460,28013,9570,4216,4555,2132,Tag0,unknown
1500041895009,0,50,1.0986328125E-5,48,70,56,112233,30685,16460,28013,9570,4216,4555,2132,Tag0,unknown
1500041895009,0,32,7.03125E-6,48,70,56,112233,30685,16460,28013,9570,4216,4555,2132,Tag0,unknown
1500041895010,0,2,4.39453125E-7,48,70,56,112233,30685,16460,28013,9570,4216,4555,2132,Tag0,unknown
1500041895010,0,-266,-5.8447265625E-5,48,70,56,112233,30685,16460,28013,9570,4216,4555,2132,Tag0,unknown
1500041895010,0,0,0.0,48,70,56,112233,30685,16460,28013,9570,4216,4555,2132,Tag0,unknown
1500041895026,0,33,7.2509765625E-6,48,70,56,112233,30685,16460,28013,9570,4216,4555,2132,Tag0,unknown
1500041895037,0,59,1.29638671875E-5,48,70,56,112233,30685,16460,28013,9570,4216,4555,2132,Tag0,unknown
1500041895038,0,59,1.29638671875E-5,48,70,56,112233,30685,16460,28013,9570,4216,4555,2132,Tag0,unknown
1500041895039,0,45,9.8876953125E-6,48,70,56,112233,30685,16460,28013,9570,4216,4555,2132,Tag0,unknown
1500041895039,0,41,9.008789062499999E-6,48,70,56,112233,30685,16460,28013,9570,4216,4555,2132,Tag0,unknown
1500041895040,0,52,1.142578125E-5,48,70,56,112233,30685,16460,28013,9570,4216,4555,2132,Tag0,unknown
1500041895040,0,48,1.0546875E-5,48,70,56,112233,30685,16460,28013,9570,4216,4555,2132,Tag0,unknown
1500041895040,0,49,1.07666015625E-5,48,70,56,112233,30685,16460,28013,9570,4216,4555,2132,Tag0,unknown
1500041895041,0,64,1.40625E-5,48,70,56,112233,30685,16460,28013,9570,4216,4555,2132,Tag0,unknown
1500041895041,0,82,1.8017578124999998E-5,48,70,56,112233,30685,16460,28013,9570,4216,4555,2132,Tag0,unknown
1500041895042,0,104,2.28515625E-5,48,70,56,112233,30685,16460,28013,9570,4216,4555,2132,Tag0,unknown
1500041895042,0,101,2.2192382812500002E-5,48,70,56,112233,30685,16460,28013,9570,4216,4555,2132,Tag0,unknown
1500041895043,0,55,1.20849609375E-5,48,70,56,112233,30685,16460,28013,9570,4216,4555,2132,Tag0,unknown
1500041895043,0,10,2.197265625E-6,48,70,56,112233,30685,16460,28013,9570,4216,4555,2132,Tag0,unknown
1500041895043,0,22,4.833984375E-6,48,70,56,112233,30685,16460,28013,9570,4216,4555,2132,Tag0,unknown
1500041895043,0,66,1.4501953125E-5,48,70,56,112233,30685,16460,28013,9570,4216,4555,2132,Tag0,unknown
1500041895044,0,66,1.4501953125E-5,48,70,56,112233,30685,16460,28013,9570,4216,4555,2132,Tag0,unknown
1500041895044,0,-269,-5.9106445312499996E-5,48,70,56,112233,30685,16460,28013,9570,4216,4555,2132,Tag0,unknown
1500041895044,0,-340,-7.470703125E-5,48,70,56,112233,30685,16460,28013,9570,4216,4555,2132,Tag0,unknown
1500041895045,0,-324,-7.119140625E-5,48,70,56,112233,30685,16460,28013,9570,4216,4555,2132,Tag0,unknown
1500041895061,0,-273,-5.998535156250001E-5,48,70,56,112233,30685,16460,28013,9570,4216,4555,2132,Tag0,unknown
1500041895071,0,3,6.591796875E-7,48,70,56,112233,30685,16460,28013,9570,4216,4555,2132,Tag0,unknown
1500041895071,0,-267,-5.86669921875E-5,48,70,56,112233,30685,16460,28013,9570,4216,4555,2132,Tag0,unknown
1500041895072,0,-307,-6.74560546875E-5,48,70,56,112233,30685,16460,28013,9570,4216,4555,2132,Tag0,unknown
1500041895072,0,-323,-7.09716796875E-5,48,70,56,112233,30685,16460,28013,9570,4216,4555,2132,Tag0,unknown
1500041895073,0,-300,-6.591796875E-5,48,70,56,112233,30685,16460,28013,9570,4216,4555,2132,Tag0,unknown
1500041895073,0,-322,-7.0751953125E-5,48,70,56,112233,30685,16460,28013,9570,4216,4555,2132,Tag0,unknown
1500041895074,0,-365,-8.02001953125E-5,48,70,56,112233,30685,16460,28013,9570,4216,4555,2132,Tag0,unknown
1500041895074,0,-333,-7.316894531249999E-5,48,70,56,112233,30685,16460,28013,9570,4216,4555,2132,Tag0,unknown
1500041895075,0,8,1.7578125E-6,48,70,56,112233,30685,16460,28013,9570,4216,4555,2132,Tag0,unknown
1500041895075,0,58,1.2744140625E-5,48,70,56,112233,30685,16460,28013,9570,4216,4555,2132,Tag0,unknown
1500041895076,0,67,1.4721679687500002E-5,48,70,56,112233,30685,16460,28013,9570,4216,4555,2132,Tag0,unknown
1500041895076,0,59,1.29638671875E-5,48,70,56,112233,30685,16460,28013,9570,4216,4555,2132,Tag0,unknown
1500041895076,0,44,9.66796875E-6,48,70,56,112233,30685,16460,28013,9570,4216,4555,2132,Tag0,unknown
1500041895077,0,56,1.23046875E-5,48,70,56,112233,30685,16460,28013,9570,4216,4555,2132,Tag0,unknown
1500041895077,0,98,2.1533203125E-5,48,70,56,112233,30685,16460,28013,9570,4216,4555,2132,Tag0,unknown
1500041895077,0,-106,-2.3291015625000003E-5,48,70,56,112233,30685,16460,28013,9570,4216,4555,2132,Tag0,unknown
1500041895077,0,-78,-1.7138671875E-5,48,70,56,112233,30685,16460,28013,9570,4216,4555,2132,Tag0,unknown
1500041895077,0,-96,-2.109375E-5,48,70,56,112233,30685,16460,28013,9570,4216,4555,2132,Tag0,unknown
1500041895078,0,-116,-2.548828125E-5,48,70,56,112233,30685,16460,28013,9570,4216,4555,2132,Tag0,unknown
1500041895098,0,-110,-2.4169921875E-5,48,70,56,112233,30685,16460,28013,9570,4216,4555,2132,Tag0,unknown
1500041895105,0,-89,-1.95556640625E-5,48,70,56,112233,30685,16460,28013,9570,4216,4555,2132,Tag0,unknown
1500041895105,0,-79,-1.7358398437500003E-5,48,70,56,112233,30685,16460,28013,9570,4216,4555,2132,Tag0,unknown
1500041895106,0,-96,-2.109375E-5,48,70,56,112233,30685,16460,28013,9570,4216,4555,2132,Tag0,unknown
1500041895106,0,-111,-2.43896484375E-5,48,70,56,112233,30685,16460,28013,9570,4216,4555,2132,Tag0,unknown
1500041895107,0,-105,-2.30712890625E-5,48,70,56,112233,30685,16460,28013,9570,4216,4555,2132,Tag0,unknown
1500041895107,0,-84,-1.8457031250000004E-5,48,70,56,112233,30685,16460,28013,9570,4216,4555,2132,Tag0,unknown
1500041895108,0,-72,-1.58203125E-5,48,70,56,112233,30685,16460,28013,9570,4216,4555,2132,Tag0,unknown
1500041895108,0,-79,-1.7358398437500003E-5,48,70,56,112233,30685,16460,28013,9570,4216,4555,2132,Tag0,unknown
1500041895109,0,-94,-2.0654296875000002E-5,48,70,56,112233,30685,16460,28013,9570,4216,4555,2132,Tag0,unknown
1500041895109,0,-102,-2.2412109374999998E-5,48,70,56,112233,30685,16460,28013,9570,4216,4555,2132,Tag0,unknown
1500041895110,0,-126,-2.7685546875E-5,48,70,56,112233,30685,16460,28013,9570,4216,4555,2132,Tag0,unknown
1500041895110,0,85,1.86767578125E-5,48,70,56,112233,30685,16460,28013,9570,4216,4555,2132,Tag0,unknown
1500041895110,0,27,5.9326171875000005E-6,48,70,56,112233,30685,16460,28013,9570,4216,4555,2132,Tag0,unknown
1500041895110,0,4,8.7890625E-7,48,70,56,112233,30685,16460,28013,9570,4216,4555,2132,Tag0,unknown
1500041895121,0,35,7.6904296875E-6,48,70,56,112233,30685,16460,28013,9570,4216,4555,2132,Tag0,unknown
1500041895121,0,92,2.021484375E-5,48,70,56,112233,30685,16460,28013,9570,4216,4555,2132,Tag0,unknown
1500041895122,0,114,2.5048828125000003E-5,48,70,56,112233,30685,16460,28013,9570,4216,4555,2132,Tag0,unknown
1500041895122,0,83,1.82373046875E-5,48,70,56,112233,30685,16460,28013,9570,4216,4555,2132,Tag0,unknown
1500041895123,0,59,1.29638671875E-5,48,70,56,112233,30685,16460,28013,9570,4216,4555,2132,Tag0,unknown
1500041895139,0,84,1.8457031250000004E-5,48,70,56,112233,30685,16460,28013,9570,4216,4555,2132,Tag0,unknown
1500041895139,0,-92,-2.021484375E-5,48,70,56,112233,30685,16460,28013,9570,4216,4555,2132,Tag0,unknown
1500041895140,0,-45,-9.8876953125E-6,48,70,56,112233,30685,16460,28013,9570,4216,4555,2132,Tag0,unknown
1500041895140,0,-107,-2.35107421875E-5,48,70,56,112233,30685,16460,28013,9570,4216,4555,2132,Tag0,unknown
1500041895141,0,58,1.2744140625E-5,48,70,56,112233,30685,16460,28013,9570,4216,4555,2132,Tag0,unknown
1500041895141,0,54,1.1865234375000001E-5,48,70,56,112233,30685,16460,28013,9570,4216,4555,2132,Tag0,unknown
1500041895155,0,107,2.35107421875E-5,48,70,56,112233,30685,16460,28013,9570,4216,4555,2132,Tag0,unknown
1500041895156,0,-108,-2.3730468750000002E-5,48,70,56,112233,30685,16460,28013,9570,4216,4555,2132,Tag0,unknown
1500041895156,0,120,2.63671875E-5,48,70,56,112233,30685,16460,28013,9570,4216,4555,2132,Tag0,unknown
1500041895157,0,71,1.56005859375E-5,48,70,56,112233,30685,16460,28013,9570,4216,4555,2132,Tag0,unknown
1500041895157,0,74,1.6259765625E-5,48,70,56,112233,30685,16460,28013,9570,4216,4555,2132,Tag0,unknown
1500041895158,0,119,2.6147460937500004E-5,48,70,56,112233,30685,16460,28013,9570,4216,4555,2132,Tag0,unknown
1500041895158,0,-100,-2.197265625E-5,48,70,56,112233,30685,16460,28013,9570,4216,4555,2132,Tag0,unknown
1500041895159,0,-124,-2.724609375E-5,48,70,56,112233,30685,16460,28013,9570,4216,4555,2132,Tag0,unknown
1500041895159,0,92,2.021484375E-5,48,70,56,112233,30685,16460,28013,9570,4216,4555,2132,Tag0,unknown
1500041895159,0,98,2.1533203125E-5,48,70,56,112233,30685,16460,28013,9570,4216,4555,2132,Tag0,unknown
1500041895160,0,-117,-2.5708007812499998E-5,48,70,56,112233,30685,16460,28013,9570,4216,4555,2132,Tag0,unknown
1500041895160,0,-70,-1.5380859375E-5,48,70,56,112233,30685,16460,28013,9570,4216,4555,2132,Tag0,unknown
1500041895160,0,-78,-1.7138671875E-5,48,70,56,112233,30685,16460,28013,9570,4216,4555,2132,Tag0,unknown
1500041895161,0,118,2.5927734375E-5,48,70,56,112233,30685,16460,28013,9570,4216,4555,2132,Tag0,unknown
1500041895174,0,87,1.91162109375E-5,48,70,56,112233,30685,16460,28013,9570,4216,4555,2132,Tag0,unknown
1500041895189,0,84,1.8457031250000004E-5,48,70,56,112233,30685,16460,28013,9570,4216,4555,2132,Tag0,unknown
1500041895189,0,109,2.39501953125E-5,48,70,56,112233,30685,16460,28013,9570,4216,4555,2132,Tag0,unknown
1500041895190,0,-106,-2.3291015625000003E-5,48,70,56,112233,30685,16460,28013,9570,4216,4555,2132,Tag0,unknown
1500041895190,0,-116,-2.548828125E-5,48,70,56,112233,30685,16460,28013,9570,4216,4555,2132,Tag0,unknown
1500041895191,0,100,2.197265625E-5,48,70,56,112233,30685,16460,28013,9570,4216,4555,2132,Tag0,unknown
1500041895191,0,98,2.1533203125E-5,48,70,56,112233,30685,16460,28013,9570,4216,4555,2132,Tag0,unknown
1500041895191,0,-112,-2.4609375E-5,48,70,56,112233,30685,16460,28013,9570,4216,4555,2132,Tag0,unknown
1500041895192,0,-109,-2.39501953125E-5,48,70,56,112233,30685,16460,28013,9570,4216,4555,2132,Tag0,unknown
1500041895193,0,107,2.35107421875E-5,48,70,56,112233,30685,16460,28013,9570,4216,4555,2132,Tag0,unknown
1500041895193,0,96,2.109375E-5,48,70,56,112233,30685,16460,28013,9570,4216,4555,2132,Tag0,unknown
1500041895193,0,97,2.13134765625E-5,48,70,56,112233,30685,16460,28013,9570,4216,4555,2132,Tag0,unknown
1500041895194,0,85,1.86767578125E-5,48,70,56,112233,30685,16460,28013,9570,4216,4555,2132,Tag0,unknown
1500041895194,0,64,1.40625E-5,48,70,56,112233,30685,16460,28013,9570,4216,4555,2132,Tag0,unknown
1500041895194,0,17,3.7353515625000003E-6,48,70,56,112233,30685,16460,28013,9570,4216,4555,2132,Tag0,unknown
1500041895194,0,-294,-6.4599609375E-5,48,70,56,112233,30685,16460,28013,9570,4216,4555,2132,Tag0,unknown
1500041895195,0,-293,-6.43798828125E-5,48,70,56,112233,30685,16460,28013,9570,4216,4555,2132,Tag0,unknown
1500041895195,0,11,2.4169921875E-6,48,70,56,112233,30685,16460,28013,9570,4216,4555,2132,Tag0,unknown
1500041895195,0,51,1.1206054687499999E-5,48,70,56,112233,30685,16460,28013,9570,4216,4555,2132,Tag0,unknown
1500041895195,0,37,8.1298828125E-6,48,70,56,112233,30685,16460,28013,9570,4216,4555,2132,Tag0,unknown
1500041895210,0,6,1.318359375E-6,48,70,56,112233,30685,16460,28013,9570,4216,4555,2132,Tag0,unknown
1500041895222,0,5,1.0986328125E-6,48,70,56,112233,30685,16460,28013,9570,4216,4555,2132,Tag0,unknown
1500041895223,0,35,7.6904296875E-6,48,70,56,112233,30685,16460,28013,9570,4216,4555,2132,Tag0,unknown
1500041895223,0,66,1.4501953125E-5,48,70,56,112233,30685,16460,28013,9570,4216,4555,2132,Tag0,unknown
1500041895224,0,56,1.23046875E-5,48,70,56,112233,30685,16460,28013,9570,4216,4555,2132,Tag0,unknown
1500041895224,0,18,3.955078125E-6,48,70,56,112233,30685,16460,28013,9570,4216,4555,2132,Tag0,unknown
1500041895225,0,2,4.39453125E-7,48,70,56,112233,30685,16460,28013,9570,4216,4555,2132,Tag0,unknown
1500041895225,0,25,5.4931640625E-6,48,70,56,112233,30685,16460,28013,9570,4216,4555,2132,Tag0,unknown
1500041895225,0,64,1.40625E-5,48,70,56,112233,30685,16460,28013,9570,4216,4555,2132,Tag0,unknown
1500041895226,0,98,2.1533203125E-5,48,70,56,112233,30685,16460,28013,9570,4216,4555,2132,Tag0,unknown
1500041895227,0,104,2.28515625E-5,48,70,56,112233,30685,16460,28013,9570,4216,4555,2132,Tag0,unknown
1500041895227,0,90,1.9775390625E-5,48,70,56,112233,30685,16460,28013,9570,4216,4555,2132,Tag0,unknown
1500041895227,0,81,1.77978515625E-5,48,70,56,112233,30685,16460,28013,9570,4216,4555,2132,Tag0,unknown
1500041895228,0,97,2.13134765625E-5,48,70,56,112233,30685,16460,28013,9570,4216,4555,2132,Tag0,unknown
1500041895228,0,99,2.1752929687500003E-5,48,70,56,112233,30685,16460,28013,9570,4216,4555,2132,Tag0,unknown
1500041895228,0,66,1.4501953125E-5,48,70,56,112233,30685,16460,28013,9570,4216,4555,2132,Tag0,unknown
1500041895229,0,50,1.0986328125E-5,48,70,56,112233,30685,16460,28013,9570,4216,4555,2132,Tag0,unknown
1500041895229,0,65,1.42822265625E-5,48,70,56,112233,30685,16460,28013,9570,4216,4555,2132,Tag0,unknown
1500041895229,0,81,1.77978515625E-5,48,70,56,112233,30685,16460,28013,9570,4216,4555,2132,Tag0,unknown
1500041895229,0,57,1.2524414062500001E-5,48,70,56,112233,30685,16460,28013,9570,4216,4555,2132,Tag0,unknown
1500041895248,0,16,3.515625E-6,48,70,56,112233,30685,16460,28013,9570,4216,4555,2132,Tag0,unknown
1500041895256,0,2,4.39453125E-7,48,70,56,112233,30685,16460,28013,9570,4216,4555,2132,Tag0,unknown
1500041895257,0,23,5.0537109375E-6,48,70,56,112233,30685,16460,28013,9570,4216,4555,2132,Tag0,unknown
1500041895257,0,55,1.20849609375E-5,48,70,56,112233,30685,16460,28013,9570,4216,4555,2132,Tag0,unknown
1500041895258,0,68,1.4941406250000001E-5,48,70,56,112233,30685,16460,28013,9570,4216,4555,2132,Tag0,unknown
1500041895258,0,51,1.1206054687499999E-5,48,70,56,112233,30685,16460,28013,9570,4216,4555,2132,Tag0,unknown
1500041895259,0,36,7.91015625E-6,48,70,56,112233,30685,16460,28013,9570,4216,4555,2132,Tag0,unknown
1500041895259,0,55,1.20849609375E-5,48,70,56,112233,30685,16460,28013,9570,4216,4555,2132,Tag0,unknown
1500041895259,0,89,1.95556640625E-5,48,70,56,112233,30685,16460,28013,9570,4216,4555,2132,Tag0,unknown
1500041895260,0,101,2.2192382812500002E-5,48,70,56,112233,30685,16460,28013,9570,4216,4555,2132,Tag0,unknown
1500041895260,0,74,1.6259765625E-5,48,70,56,112233,30685,16460,28013,9570,4216,4555,2132,Tag0,unknown
