timestampMs,poorSignal,eegRawValue,eegRawValueVolts,attention,meditation,blinkStrength,delta,theta,alphaLow,alphaHigh,betaLow,betaHigh,gammaLow,gammaMid,tagEvent,location
1500041606038,0,-116,-2.548828125E-5,51,90,43,766184,16745197,8363,23346,15452,3671,1791,2159,Tag0,unknown
1500041606038,0,117,2.5708007812499998E-5,51,90,43,766184,16745197,8363,23346,15452,3671,1791,2159,Tag0,unknown
1500041606039,0,74,1.6259765625E-5,51,90,43,766184,16745197,8363,23346,15452,3671,1791,2159,Tag0,unknown
1500041606039,0,71,1.56005859375E-5,51,90,43,766184,16745197,8363,23346,15452,3671,1791,2159,Tag0,unknown
1500041606040,0,96,2.109375E-5,51,90,43,766184,16745197,8363,23346,15452,3671,1791,2159,Tag0,unknown
1500041606040,0,91,1.99951171875E-5,51,90,43,766184,16745197,8363,23346,15452,3671,1791,2159,Tag0,unknown
1500041606041,0,50,1.0986328125E-5,51,90,43,766184,16745197,8363,23346,15452,3671,1791,2159,Tag0,unknown
1500041606041,0,17,3.7353515625000003E-6,51,90,43,766184,16745197,8363,23346,15452,3671,1791,2159,Tag0,unknown
1500041606042,0,38,8.349609375E-6,51,90,43,766184,16745197,8363,23346,15452,3671,1791,2159,Tag0,unknown
1500041606043,0,91,1.99951171875E-5,51,90,43,766184,16745197,8363,23346,15452,3671,1791,2159,Tag0,unknown
1500041606061,0,123,2.70263671875E-5,51,90,43,766184,16745197,8363,23346,15452,3671,1791,2159,Tag0,unknown
1500041606069,0,93,2.04345703125E-5,51,90,43,766184,16745197,8363,23346,15452,3671,1791,2159,Tag0,unknown
1500041606070,0,40,8.7890625E-6,51,90,43,766184,16745197,8363,23346,15452,3671,1791,2159,Tag0,unknown
1500041606071,0,25,5.4931640625E-6,51,90,43,766184,16745197,8363,23346,15452,3671,1791,2159,Tag0,unknown
1500041606071,0,56,1.23046875E-5,51,90,43,766184,16745197,8363,23346,15452,3671,1791,2159,Tag0,unknown
1500041606073,0,87,1.91162109375E-5,51,90,43,766184,16745197,8363,23346,15452,3671,1791,2159,Tag0,unknown
1500041606074,0,71,1.56005859375E-5,51,90,43,766184,16745197,8363,23346,15452,3671,1791,2159,Tag0,unknown
1500041606074,0,29,6.3720703125E-6,51,90,43,766184,16745197,8363,23346,15452,3671,1791,2159,Tag0,unknown
1500041606075,0,29,6.3720703125E-6,51,90,43,766184,16745197,8363,23346,15452,3671,1791,2159,Tag0,unknown
1500041606075,0,69,1.51611328125E-5,51,90,43,766184,16745197,8363,23346,15452,3671,1791,2159,Tag0,unknown
1500041606075,0,112,2.4609375E-5,51,90,43,766184,16745197,8363,23346,15452,3671,1791,2159,Tag0,unknown
1500041606076,0,103,2.26318359375E-5,51,90,43,766184,16745197,8363,23346,15452,3671,1791,2159,Tag0,unknown
1500041606076,0,56,1.23046875E-5,51,90,43,766184,16745197,8363,23346,15452,3671,1791,2159,Tag0,unknown
1500041606076,0,38,8.349609375E-6,51,90,43,766184,16745197,8363,23346,15452,3671,1791,2159,Tag0,unknown
1500041606077,0,65,1.42822265625E-5,51,90,43,766184,16745197,8363,23346,15452,3671,1791,2159,Tag0,unknown
1500041606077,0,96,2.109375E-5,51,90,43,766184,16745197,8363,23346,15452,3671,1791,2159,Tag0,unknown
1500041606077,0,86,1.8896484375000003E-5,51,90,43,766184,16745197,8363,23346,15452,3671,1791,2159,Tag0,unknown
1500041606078,0,43,9.448242187500001E-6,51,90,43,766184,16745197,8363,23346,15452,3671,1791,2159,Tag0,unknown
1500041606078,0,28,6.15234375E-6,51,90,43,766184,16745197,8363,23346,15452,3671,1791,2159,Tag0,unknown
1500041606078,0,49,1.07666015625E-5,51,90,43,766184,16745197,8363,23346,15452,3671,1791,2159,Tag0,unknown
1500041606097,0,76,1.669921875E-5,51,90,43,766184,16745197,8363,23346,15452,3671,1791,2159,Tag0,unknown
1500041606103,0,84,1.8457031250000004E-5,51,90,43,766184,16745197,8363,23346,15452,3671,1791,2159,Tag0,unknown
1500041606104,0,54,1.1865234375000001E-5,51,90,43,766184,16745197,8363,23346,15452,3671,1791,2159,Tag0,unknown
1500041606104,0,29,6.3720703125E-6,51,90,43,766184,16745197,8363,23346,15452,3671,1791,2159,Tag0,unknown
1500041606105,0,44,9.66796875E-6,51,90,43,766184,16745197,8363,23346,15452,3671,1791,2159,Tag0,unknown
1500041606106,0,81,1.77978515625E-5,51,90,43,766184,16745197,8363,23346,15452,3671,1791,2159,Tag0,unknown
1500041606106,0,87,1.91162109375E-5,51,90,43,766184,16745197,8363,23346,15452,3671,1791,2159,Tag0,unknown
1500041606107,0,53,1.1645507812500002E-5,51,90,43,766184,16745197,8363,23346,15452,3671,1791,2159,Tag0,unknown
1500041606108,0,34,7.4707031250000005E-6,51,90,43,766184,16745197,8363,23346,15452,3671,1791,2159,Tag0,unknown
1500041606108,0,69,1.51611328125E-5,51,90,43,766184,16745197,8363,23346,15452,3671,1791,2159,Tag0,unknown
1500041606109,0,-127,-2.79052734375E-5,51,90,43,766184,16745197,8363,23346,15452,3671,1791,2159,Tag0,unknown
1500041606109,0,-111,-2.43896484375E-5,51,90,43,766184,16745197,8363,23346,15452,3671,1791,2159,Tag0,unknown
1500041606109,0,85,1.86767578125E-5,51,90,43,766184,16745197,8363,23346,15452,3671,1791,2159,Tag0,unknown
1500041606110,0,48,1.0546875E-5,51,90,43,766184,16745197,8363,23346,15452,3671,1791,2159,Tag0,unknown
1500041606110,0,76,1.669921875E-5,51,90,43,766184,16745197,8363,23346,15452,3671,1791,2159,Tag0,unknown
1500041606119,0,-122,-2.6806640625E-5,51,90,43,766184,16745197,8363,23346,15452,3671,1791,2159,Tag0,unknown
1500041606120,0,-99,-2.1752929687500003E-5,51,90,43,766184,16745197,8363,23346,15452,3671,1791,2159,Tag0,unknown
1500041606121,0,122,2.6806640625E-5,51,90,43,766184,16745197,8363,23346,15452,3671,1791,2159,Tag0,unknown
1500041606121,0,70,1.5380859375E-5,51,90,43,766184,16745197,8363,23346,15452,3671,1791,2159,Tag0,unknown
1500041606122,0,52,1.142578125E-5,51,90,43,766184,16745197,8363,23346,15452,3671,1791,2159,Tag0,unknown
1500041606138,0,89,1.95556640625E-5,51,90,43,766184,16745197,8363,23346,15452,3671,1791,2159,Tag0,unknown
1500041606139,0,-112,-2.4609375E-5,51,90,43,766184,16745197,8363,23346,15452,3671,1791,2159,Tag0,unknown
1500041606140,0,-126,-2.7685546875E-5,51,90,43,766184,16745197,8363,23346,15452,3671,1791,2159,Tag0,unknown
1500041606140,0,76,1.669921875E-5,51,90,43,766184,16745197,8363,23346,15452,3671,1791,2159,Tag0,unknown
1500041606141,0,65,1.42822265625E-5,51,90,43,766184,16745197,8363,23346,15452,3671,1791,2159,Tag0,unknown
1500041606142,0,90,1.9775390625E-5,51,90,43,766184,16745197,8363,23346,15452,3671,1791,2159,Tag0,unknown
1500041606142,0,101,2.2192382812500002E-5,51,90,43,766184,16745197,8363,23346,15452,3671,1791,2159,Tag0,unknown
1500041606143,0,73,1.6040039062500002E-5,51,90,43,766184,16745197,8363,23346,15452,3671,1791,2159,Tag0,unknown
1500041606144,0,36,7.91015625E-6,51,90,43,766184,16745197,8363,23346,15452,3671,1791,2159,Tag0,unknown
1500041606144,0,29,6.3720703125E-6,51,90,43,766184,16745197,8363,23346,15452,3671,1791,2159,Tag0,unknown
1500041606145,0,50,1.0986328125E-5,51,90,43,766184,16745197,8363,23346,15452,3671,1791,2159,Tag0,unknown
1500041606145,0,70,1.5380859375E-5,51,90,43,766184,16745197,8363,23346,15452,3671,1791,2159,Tag0,unknown
1500041606146,0,60,1.318359375E-5,51,90,43,766184,16745197,8363,23346,15452,3671,1791,2159,Tag0,unknown
1500041606146,0,18,3.955078125E-6,51,90,43,766184,16745197,8363,23346,15452,3671,1791,2159,Tag0,unknown
1500041606146,0,2,4.39453125E-7,51,90,43,766184,16745197,8363,23346,15452,3671,1791,2159,Tag0,unknown
1500041606146,0,32,7.03125E-6,51,90,43,766184,16745197,8363,23346,15452,3671,1791,2159,Tag0,unknown
1500041606147,0,70,1.5380859375E-5,51,90,43,766184,16745197,8363,23346,15452,3671,1791,2159,Tag0,unknown
1500041606147,0,60,1.318359375E-5,51,90,43,766184,16745197,8363,23346,15452,3671,1791,2159,Tag0,unknown
1500041606147,0,1,2.197265625E-7,51,90,43,766184,16745197,8363,23346,15452,3671,1791,2159,Tag0,unknown
1500041606148,0,-277,-6.0864257812500005E-5,51,90,43,766184,16745197,8363,23346,15452,3671,1791,2159,Tag0,unknown
1500041606169,0,22,4.833984375E-6,51,90,43,766184,16745197,8363,23346,15452,3671,1791,2159,Tag0,unknown
1500041606185,0,72,1.58203125E-5,51,90,43,766184,16745197,8363,23346,15452,3671,1791,2159,Tag0,unknown
1500041606186,0,72,1.58203125E-5,51,90,43,766184,16745197,8363,23346,15452,3671,1791,2159,Tag0,unknown
1500041606186,0,20,4.39453125E-6,51,90,43,766184,16745197,8363,23346,15452,3671,1791,2159,Tag0,unknown
1500041606186,0,-261,-5.73486328125E-5,51,90,43,766184,16745197,8363,23346,15452,3671,1791,2159,Tag0,unknown
1500041606186,0,22,4.833984375E-6,51,90,43,766184,16745197,8363,23346,15452,3671,1791,2159,Tag0,unknown
1500041606187,0,67,1.4721679687500002E-5,51,90,43,766184,16745197,8363,23346,15452,3671,1791,2159,Tag0,unknown
1500041606187,0,70,1.5380859375E-5,51,90,43,766184,16745197,8363,23346,15452,3671,1791,2159,Tag0,unknown
1500041606187,0,33,7.2509765625E-6,51,90,43,766184,16745197,8363,23346,15452,3671,1791,2159,Tag0,unknown
1500041606187,0,3,6.591796875E-7,51,90,43,766184,16745197,8363,23346,15452,3671,1791,2159,Tag0,unknown
1500041606187,0,7,1.5380859375E-6,51,90,43,766184,16745197,8363,23346,15452,3671,1791,2159,Tag0,unknown
1500041606187,0,35,7.6904296875E-6,51,90,43,766184,16745197,8363,23346,15452,3671,1791,2159,Tag0,unknown
1500041606188,0,67,1.4721679687500002E-5,51,90,43,766184,16745197,8363,23346,15452,3671,1791,2159,Tag0,unknown
1500041606188,0,44,9.66796875E-6,51,90,43,766184,16745197,8363,23346,15452,3671,1791,2159,Tag0,unknown
1500041606188,0,0,0.0,51,90,43,766184,16745197,8363,23346,15452,3671,1791,2159,Tag0,unknown
1500041606188,0,10,2.197265625E-6,51,90,43,766184,16745197,8363,23346,15452,3671,1791,2159,Tag0,unknown
1500041606188,0,81,1.77978515625E-5,51,90,43,766184,16745197,8363,23346,15452,3671,1791,2159,Tag0,unknown
1500041606188,0,114,2.5048828125000003E-5,51,90,43,766184,16745197,8363,23346,15452,3671,1791,2159,Tag0,unknown
1500041606189,0,83,1.82373046875E-5,51,90,43,766184,16745197,8363,23346,15452,3671,1791,2159,Tag0,unknown
1500041606189,0,42,9.228515625000002E-6,51,90,43,766184,16745197,8363,23346,15452,3671,1791,2159,Tag0,unknown
1500041606210,0,52,1.142578125E-5,51,90,43,766184,16745197,8363,23346,15452,3671,1791,2159,Tag0,unknown
1500041606210,0,91,1.99951171875E-5,51,90,43,766184,16745197,8363,23346,15452,3671,1791,2159,Tag0,unknown
1500041606220,0,-127,-2.79052734375E-5,51,90,43,766184,16745197,8363,23346,15452,3671,1791,2159,Tag0,unknown
1500041606221,0,120,2.63671875E-5,51,90,43,766184,16745197,8363,23346,15452,3671,1791,2159,Tag0,unknown
1500041606221,0,82,1.8017578124999998E-5,51,90,43,766184,16745197,8363,23346,15452,3671,1791,2159,Tag0,unknown
1500041606222,0,71,1.56005859375E-5,51,90,43,766184,16745197,8363,23346,15452,3671,1791,2159,Tag0,unknown
1500041606222,0,101,2.2192382812500002E-5,51,90,43,766184,16745197,8363,23346,15452,3671,1791,2159,Tag0,unknown
1500041606223,0,123,2.70263671875E-5,51,90,43,766184,16745197,8363,23346,15452,3671,1791,2159,Tag0,unknown
1500041606223,0,104,2.28515625E-5,51,90,43,766184,16745197,8363,23346,15452,3671,1791,2159,Tag0,unknown
1500041606224,0,68,1.4941406250000001E-5,51,90,43,766184,16745197,8363,23346,15452,3671,1791,2159,Tag0,unknown
1500041606224,0,56,1.23046875E-5,51,90,43,766184,16745197,8363,23346,15452,3671,1791,2159,Tag0,unknown
1500041606225,0,82,1.8017578124999998E-5,51,90,43,766184,16745197,8363,23346,15452,3671,1791,2159,Tag0,unknown
1500041606225,0,114,2.5048828125000003E-5,51,90,43,766184,16745197,8363,23346,15452,3671,1791,2159,Tag0,unknown
1500041606226,0,120,2.63671875E-5,51,90,43,766184,16745197,8363,23346,15452,3671,1791,2159,Tag0,unknown
1500041606226,0,87,1.91162109375E-5,51,90,43,766184,16745197,8363,23346,15452,3671,1791,2159,Tag0,unknown
1500041606227,0,53,1.1645507812500002E-5,51,90,43,766184,16745197,8363,23346,15452,3671,1791,2159,Tag0,unknown
1500041606227,0,66,1.4501953125E-5,51,90,43,766184,16745197,8363,23346,15452,3671,1791,2159,Tag0,unknown
1500041606227,0,105,2.30712890625E-5,51,90,43,766184,16745197,8363,23346,15452,3671,1791,2159,Tag0,unknown
1500041606227,0,113,2.48291015625E-5,51,90,43,766184,16745197,8363,23346,15452,3671,1791,2159,Tag0,unknown
1500041606228,0,72,1.58203125E-5,51,90,43,766184,16745197,8363,23346,15452,3671,1791,2159,Tag0,unknown
1500041606247,0,50,1.0986328125E-5,51,90,43,766184,16745197,8363,23346,15452,3671,1791,2159,Tag0,unknown
1500041606254,0,72,1.58203125E-5,51,90,43,766184,16745197,8363,23346,15452,3671,1791,2159,Tag0,unknown
1500041606255,0,102,2.2412109374999998E-5,51,90,43,766184,16745197,8363,23346,15452,3671,1791,2159,Tag0,unknown
1500041606255,0,102,2.2412109374999998E-5,51,90,43,766184,16745197,8363,23346,15452,3671,1791,2159,Tag0,unknown
1500041606256,0,50,1.0986328125E-5,51,90,43,766184,16745197,8363,23346,15452,3671,1791,2159,Tag0,unknown
1500041606257,0,-261,-5.73486328125E-5,51,90,43,766184,16745197,8363,23346,15452,3671,1791,2159,Tag0,unknown
1500041606257,0,-263,-5.7788085937500005E-5,51,90,43,766184,16745197,8363,23346,15452,3671,1791,2159,Tag0,unknown
1500041606258,0,34,7.4707031250000005E-6,51,90,43,766184,16745197,8363,23346,15452,3671,1791,2159,Tag0,unknown
1500041606258,0,55,1.20849609375E-5,51,90,43,766184,16745197,8363,23346,15452,3671,1791,2159,Tag0,unknown
1500041606258,0,19,4.1748046875E-6,51,90,43,766184,16745197,8363,23346,15452,3671,1791,2159,Tag0,unknown
1500041606259,0,-270,-5.9326171875E-5,51,90,43,766184,16745197,8363,23346,15452,3671,1791,2159,Tag0,unknown
1500041606259,0,-259,-5.69091796875E-5,51,90,43,766184,16745197,8363,23346,15452,3671,1791,2159,Tag0,unknown
1500041606271,0,36,7.91015625E-6,51,90,43,766184,16745197,8363,23346,15452,3671,1791,2159,Tag0,unknown
1500041606271,0,67,1.4721679687500002E-5,51,90,43,766184,16745197,8363,23346,15452,3671,1791,2159,Tag0,unknown
1500041606272,0,51,1.1206054687499999E-5,51,90,43,766184,16745197,8363,23346,15452,3671,1791,2159,Tag0,unknown
1500041606273,0,23,5.0537109375E-6,51,90,43,766184,16745197,8363,23346,15452,3671,1791,2159,Tag0,unknown
1500041606273,0,22,4.833984375E-6,51,90,43,766184,16745197,8363,23346,15452,3671,1791,2159,Tag0,unknown
1500041606274,0,66,1.4501953125E-5,51,90,43,766184,16745197,8363,23346,15452,3671,1791,2159,Tag0,unknown
1500041606274,0,97,2.13134765625E-5,51,90,43,766184,16745197,8363,23346,15452,3671,1791,2159,Tag0,unknown
1500041606275,0,73,1.6040039062500002E-5,51,90,43,766184,16745197,8363,23346,15452,3671,1791,2159,Tag0,unknown
1500041606288,0,28,6.15234375E-6,51,90,43,766184,16745197,8363,23346,15452,3671,1791,2159,Tag0,unknown
1500041606288,0,24,5.2734375E-6,51,90,43,766184,16745197,8363,23346,15452,3671,1791,2159,Tag0,unknown
1500041606289,0,66,1.4501953125E-5,51,90,43,766184,16745197,8363,23346,15452,3671,1791,2159,Tag0,unknown
1500041606305,0,98,2.1533203125E-5,51,90,43,766184,16745197,8363,23346,15452,3671,1791,2159,Tag0,unknown
1500041606305,0,71,1.56005859375E-5,51,90,43,766184,16745197,8363,23346,15452,3671,1791,2159,Tag0,unknown
1500041606306,0,18,3.955078125E-6,51,90,43,766184,16745197,8363,23346,15452,3671,1791,2159,Tag0,unknown
1500041606306,0,-265,-5.82275390625E-5,51,90,43,766184,16745197,8363,23346,15452,3671,1791,2159,Tag0,unknown
1500041606307,0,11,2.4169921875E-6,51,90,43,766184,16745197,8363,23346,15452,3671,1791,2159,Tag0,unknown
1500041606307,0,56,1.23046875E-5,51,90,43,766184,16745197,8363,23346,15452,3671,1791,2159,Tag0,unknown
1500041606308,0,71,1.56005859375E-5,51,90,43,766184,16745197,8363,23346,15452,3671,1791,2159,Tag0,unknown
1500041606308,0,50,1.0986328125E-5,51,90,43,766184,16745197,8363,23346,15452,3671,1791,2159,Tag0,unknown
1500041606309,0,39,8.5693359375E-6,51,90,43,766184,16745197,8363,23346,15452,3671,1791,2159,Tag0,unknown
1500041606309,0,76,1.669921875E-5,51,90,43,766184,16745197,8363,23346,15452,3671,1791,2159,Tag0,unknown
1500041606310,0,119,2.6147460937500004E-5,51,90,43,766184,16745197,8363,23346,15452,3671,1791,2159,Tag0,unknown
1500041606310,0,112,2.4609375E-5,51,90,43,766184,16745197,8363,23346,15452,3671,1791,2159,Tag0,unknown
1500041606310,0,51,1.1206054687499999E-5,51,90,43,766184,16745197,8363,23346,15452,3671,1791,2159,Tag0,unknown
1500041606311,0,17,3.7353515625000003E-6,51,90,43,766184,16745197,8363,23346,15452,3671,1791,2159,Tag0,unknown
1500041606311,0,50,1.0986328125E-5,51,90,43,766184,16745197,8363,23346,15452,3671,1791,2159,Tag0,unknown
1500041606311,0,100,2.197265625E-5,51,90,43,766184,16745197,8363,23346,15452,3671,1791,2159,Tag0,unknown
1500041606311,0,112,2.4609375E-5,51,90,43,766184,16745197,8363,23346,15452,3671,1791,2159,Tag0,unknown
1500041606325,0,74,1.6259765625E-5,51,90,43,766184,16745197,8363,23346,15452,3671,1791,2159,Tag0,unknown
1500041606338,0,51,1.1206054687499999E-5,51,90,43,766184,16745197,8363,23346,15452,3671,1791,2159,Tag0,unknown
1500041606339,0,86,1.8896484375000003E-5,51,90,43,766184,16745197,8363,23346,15452,3671,1791,2159,Tag0,unknown
1500041606340,0,-110,-2.4169921875E-5,51,90,43,766184,16745197,8363,23346,15452,3671,1791,2159,Tag0,unknown
1500041606340,0,-95,-2.08740234375E-5,51,90,43,766184,16745197,8363,23346,15452,3671,1791,2159,Tag0,unknown
1500041606341,0,103,2.26318359375E-5,51,90,43,766184,16745197,8363,23346,15452,3671,1791,2159,Tag0,unknown
1500041606341,0,37,8.1298828125E-6,51,90,43,766184,16745197,8363,23346,15452,3671,1791,2159,Tag0,unknown
1500041606342,0,35,7.6904296875E-6,51,90,43,766184,16745197,8363,23346,15452,3671,1791,2159,Tag0,unknown
1500041606343,0,100,2.197265625E-5,51,90,43,766184,16745197,8363,23346,15452,3671,1791,2159,Tag0,unknown
1500041606343,0,-112,-2.4609375E-5,51,90,43,766184,16745197,8363,23346,15452,3671,1791,2159,Tag0,unknown
1500041606344,0,115,2.52685546875E-5,51,90,43,766184,16745197,8363,23346,15452,3671,1791,2159,Tag0,unknown
1500041606344,0,58,1.2744140625E-5,51,90,43,766184,16745197,8363,23346,15452,3671,1791,2159,Tag0,unknown
1500041606344,0,33,7.2509765625E-6,51,90,43,766184,16745197,8363,23346,15452,3671,1791,2159,Tag0,unknown
1500041606344,0,26,5.712890625E-6,51,90,43,766184,16745197,8363,23346,15452,3671,1791,2159,Tag0,unknown
1500041606345,0,25,5.4931640625E-6,51,90,43,766184,16745197,8363,23346,15452,3671,1791,2159,Tag0,unknown
1500041606345,0,-260,-5.712890625E-5,51,90,43,766184,16745197,8363,23346,15452,3671,1791,2159,Tag0,unknown
1500041606345,0,-299,-6.56982421875E-5,51,90,43,766184,16745197,8363,23346,15452,3671,1791,2159,Tag0,unknown
1500041606345,0,-260,-5.712890625E-5,51,90,43,766184,16745197,8363,23346,15452,3671,1791,2159,Tag0,unknown
1500041606346,0,83,1.82373046875E-5,51,90,43,766184,16745197,8363,23346,15452,3671,1791,2159,Tag0,unknown
1500041606346,0,121,2.6586914062500003E-5,51,90,43,766184,16745197,8363,23346,15452,3671,1791,2159,Tag0,unknown
1500041606365,0,72,1.58203125E-5,51,90,43,766184,16745197,8363,23346,15452,3671,1791,2159,Tag0,unknown
1500041606372,0,0,0.0,51,90,43,766184,16745197,8363,23346,15452,3671,1791,2159,Tag0,unknown
1500041606372,0,-264,-5.80078125E-5,51,90,43,766184,16745197,8363,23346,15452,3671,1791,2159,Tag0,unknown
1500041606373,0,19,4.1748046875E-6,51,90,43,766184,16745197,8363,23346,15452,3671,1791,2159,Tag0,unknown
1500041606373,0,39,8.5693359375E-6,51,90,43,766184,16745197,8363,23346,15452,3671,1791,2159,Tag0,unknown
1500041606374,0,32,7.03125E-6,51,90,43,766184,16745197,8363,23346,15452,3671,1791,2159,Tag0,unknown
1500041606374,0,-268,-5.8886718750000006E-5,51,90,43,766184,16745197,8363,23346,15452,3671,1791,2159,Tag0,unknown
1500041606375,0,-301,-6.613769531250001E-5,51,90,43,766184,16745197,8363,23346,15452,3671,1791,2159,Tag0,unknown
1500041606375,0,-305,-6.70166015625E-5,51,90,43,766184,16745197,8363,23346,15452,3671,1791,2159,Tag0,unknown
1500041606376,0,-298,-6.5478515625E-5,51,90,43,766184,16745197,8363,23346,15452,3671,1791,2159,Tag0,unknown
1500041606377,0,-323,-7.09716796875E-5,51,90,43,766184,16745197,8363,23346,15452,3671,1791,2159,Tag0,unknown
1500041606377,0,-370,-8.1298828125E-5,51,90,43,766184,16745197,8363,23346,15452,3671,1791,2159,Tag0,unknown
1500041606377,0,-365,-8.02001953125E-5,51,90,43,766184,16745197,8363,23346,15452,3671,1791,2159,Tag0,unknown
1500041606378,0,-293,-6.43798828125E-5,51,90,43,766184,16745197,8363,23346,15452,3671,1791,2159,Tag0,unknown
1500041606378,0,38,8.349609375E-6,51,90,43,766184,16745197,8363,23346,15452,3671,1791,2159,Tag0,unknown
1500041606378,0,65,1.42822265625E-5,51,90,43,766184,16745197,8363,23346,15452,3671,1791,2159,Tag0,unknown
1500041606379,0,20,4.39453125E-6,51,90,43,766184,16745197,8363,23346,15452,3671,1791,2159,Tag0,unknown
1500041606379,0,-297,-6.525878906250001E-5,51,90,43,766184,16745197,8363,23346,15452,3671,1791,2159,Tag0,unknown
1500041606379,0,-316,-6.943359375000001E-5,51,90,43,766184,16745197,8363,23346,15452,3671,1791,2159,Tag0,unknown
1500041606380,0,-283,-6.218261718750001E-5,51,90,43,766184,16745197,8363,23346,15452,3671,1791,2159,Tag0,unknown
1500041606404,0,9,1.9775390625E-6,51,90,43,766184,16745197,8363,23346,15452,3671,1791,2159,Tag0,unknown
1500041606422,0,10,2.197265625E-6,51,90,43,766184,16745197,8363,23346,15452,3671,1791,2159,Tag0,unknown
1500041606423,0,-265,-5.82275390625E-5,51,90,43,766184,16745197,8363,23346,15452,3671,1791,2159,Tag0,unknown
1500041606423,0,-259,-5.69091796875E-5,51,90,43,766184,16745197,8363,23346,15452,3671,1791,2159,Tag0,unknown
1500041606424,0,24,5.2734375E-6,51,90,43,766184,16745197,8363,23346,15452,3671,1791,2159,Tag0,unknown
1500041606424,0,51,1.1206054687499999E-5,51,90,43,766184,16745197,8363,23346,15452,3671,1791,2159,Tag0,unknown
1500041606425,0,43,9.448242187500001E-6,51,90,43,766184,16745197,8363,23346,15452,3671,1791,2159,Tag0,unknown
1500041606425,0,19,4.1748046875E-6,51,90,43,766184,16745197,8363,23346,15452,3671,1791,2159,Tag0,unknown
1500041606426,0,16,3.515625E-6,51,90,43,766184,16745197,8363,23346,15452,3671,1791,2159,Tag0,unknown
1500041606426,0,43,9.448242187500001E-6,51,90,43,766184,16745197,8363,23346,15452,3671,1791,2159,Tag0,unknown
1500041606427,0,70,1.5380859375E-5,51,90,43,766184,16745197,8363,23346,15452,3671,1791,2159,Tag0,unknown
1500041606427,0,58,1.2744140625E-5,51,90,43,766184,16745197,8363,23346,15452,3671,1791,2159,Tag0,unknown
1500041606428,0,27,5.9326171875000005E-6,51,90,43,766184,16745197,8363,23346,15452,3671,1791,2159,Tag0,unknown
1500041606428,0,21,4.614257812500001E-6,51,90,43,766184,16745197,8363,23346,15452,3671,1791,2159,Tag0,unknown
1500041606429,0,42,9.228515625000002E-6,51,90,43,766184,16745197,8363,23346,15452,3671,1791,2159,Tag0,unknown
1500041606429,0,75,1.64794921875E-5,51,90,43,766184,16745197,8363,23346,15452,3671,1791,2159,Tag0,unknown
1500041606429,0,68,1.4941406250000001E-5,51,90,43,766184,16745197,8363,23346,15452,3671,1791,2159,Tag0,unknown
1500041606430,0,21,4.614257812500001E-6,51,90,43,766184,16745197,8363,23346,15452,3671,1791,2159,Tag0,unknown
1500041606430,0,7,1.5380859375E-6,51,90,43,766184,16745197,8363,23346,15452,3671,1791,2159,Tag0,unknown
1500041606430,0,48,1.0546875E-5,51,90,43,766184,16745197,8363,23346,15452,3671,1791,2159,Tag0,unknown
1500041606439,0,90,1.9775390625E-5,51,90,43,766184,16745197,8363,23346,15452,3671,1791,2159,Tag0,unknown
1500041606440,0,83,1.82373046875E-5,51,90,43,766184,16745197,8363,23346,15452,3671,1791,2159,Tag0,unknown
1500041606440,0,27,5.9326171875000005E-6,51,90,43,766184,16745197,8363,23346,15452,3671,1791,2159,Tag0,unknown
1500041606441,0,3,6.591796875E-7,51,90,43,766184,16745197,8363,23346,15452,3671,1791,2159,Tag0,unknown
1500041606442,0,25,5.4931640625E-6,51,90,43,766184,16745197,8363,23346,15452,3671,1791,2159,Tag0,unknown
1500041606442,0,65,1.42822265625E-5,51,90,43,766184,16745197,8363,23346,15452,3671,1791,2159,Tag0,unknown
1500041606443,0,80,1.7578125E-5,51,90,43,766184,16745197,8363,23346,15452,3671,1791,2159,Tag0,unknown
1500041606443,0,36,7.91015625E-6,51,90,43,766184,16745197,8363,23346,15452,3671,1791,2159,Tag0,unknown
1500041606444,0,2,4.39453125E-7,51,90,43,766184,16745197,8363,23346,15452,3671,1791,2159,Tag0,unknown
1500041606444,0,34,7.4707031250000005E-6,51,90,43,766184,16745197,8363,23346,15452,3671,1791,2159,Tag0,unknown
1500041606471,0,80,1.7578125E-5,51,90,43,766184,16745197,8363,23346,15452,3671,1791,2159,Tag0,unknown
1500041606472,0,74,1.6259765625E-5,51,90,43,766184,16745197,8363,23346,15452,3671,1791,2159,Tag0,unknown
1500041606473,0,33,7.2509765625E-6,51,90,43,766184,16745197,8363,23346,15452,3671,1791,2159,Tag0,unknown
1500041606490,0,4,8.7890625E-7,51,90,43,766184,16745197,8363,23346,15452,3671,1791,2159,Tag0,unknown
1500041606490,0,24,5.2734375E-6,51,90,43,766184,16745197,8363,23346,15452,3671,1791,2159,Tag0,unknown
1500041606491,0,54,1.1865234375000001E-5,51,90,43,766184,16745197,8363,23346,15452,3671,1791,2159,Tag0,unknown
1500041606491,0,60,1.318359375E-5,51,90,43,766184,16745197,8363,23346,15452,3671,1791,2159,Tag0,unknown
1500041606492,0,20,4.39453125E-6,51,90,43,766184,16745197,8363,23346,15452,3671,1791,2159,Tag0,unknown
1500041606494,0,-268,-5.8886718750000006E-5,51,90,43,766184,16745197,8363,23346,15452,3671,1791,2159,Tag0,unknown
1500041606494,0,5,1.0986328125E-6,51,90,43,766184,16745197,8363,23346,15452,3671,1791,2159,Tag0,unknown
1500041606495,0,48,1.0546875E-5,51,90,43,766184,16745197,8363,23346,15452,3671,1791,2159,Tag0,unknown
1500041606496,0,64,1.40625E-5,51,90,43,766184,16745197,8363,23346,15452,3671,1791,2159,Tag0,unknown
1500041606496,0,26,5.712890625E-6,51,90,43,766184,16745197,8363,23346,15452,3671,1791,2159,Tag0,unknown
1500041606497,0,-268,-5.8886718750000006E-5,51,90,43,766184,16745197,8363,23346,15452,3671,1791,2159,Tag0,unknown
1500041606497,0,0,0.0,51,90,43,766184,16745197,8363,23346,15452,3671,1791,2159,Tag0,unknown
1500041606498,0,54,1.1865234375000001E-5,51,90,43,766184,16745197,8363,23346,15452,3671,1791,2159,Tag0,unknown
1500041606498,0,92,2.021484375E-5,51,90,43,766184,16745197,8363,23346,15452,3671,1791,2159,Tag0,unknown
1500041606499,0,59,1.29638671875E-5,51,90,43,766184,16745197,8363,23346,15452,3671,1791,2159,Tag0,unknown
1500041606499,0,-262,-5.7568359375E-5,51,90,43,766184,16745197,8363,23346,15452,3671,1791,2159,Tag0,unknown
1500041606499,0,-283,-6.218261718750001E-5,51,90,43,766184,16745197,8363,23346,15452,3671,1791,2159,Tag0,unknown
1500041606507,0,32,7.03125E-6,51,90,43,766184,16745197,8363,23346,15452,3671,1791,2159,Tag0,unknown
1500041606523,0,101,2.2192382812500002E-5,51,90,43,766184,16745197,8363,23346,15452,3671,1791,2159,Tag0,unknown
1500041606524,0,116,2.548828125E-5,51,90,43,766184,16745197,8363,23346,15452,3671,1791,2159,Tag0,unknown
1500041606524,0,73,1.6040039062500002E-5,51,90,43,766184,16745197,8363,23346,15452,3671,1791,2159,Tag0,unknown
1500041606525,0,58,1.2744140625E-5,51,90,43,766184,16745197,8363,23346,15452,3671,1791,2159,Tag0,unknown
1500041606525,0,91,1.99951171875E-5,51,90,43,766184,16745197,8363,23346,15452,3671,1791,2159,Tag0,unknown
1500041606526,0,-122,-2.6806640625E-5,51,90,43,766184,16745197,8363,23346,15452,3671,1791,2159,Tag0,unknown
1500041606526,0,-120,-2.63671875E-5,51,90,43,766184,16745197,8363,23346,15452,3671,1791,2159,Tag0,unknown
1500041606527,0,107,2.35107421875E-5,51,90,43,766184,16745197,8363,23346,15452,3671,1791,2159,Tag0,unknown
1500041606527,0,97,2.13134765625E-5,51,90,43,766184,16745197,8363,23346,15452,3671,1791,2159,Tag0,unknown
1500041606528,0,118,2.5927734375E-5,51,90,43,766184,16745197,8363,23346,15452,3671,1791,2159,Tag0,unknown
1500041606528,0,-111,-2.43896484375E-5,51,90,43,766184,16745197,8363,23346,15452,3671,1791,2159,Tag0,unknown
1500041606529,0,-123,-2.70263671875E-5,51,90,43,766184,16745197,8363,23346,15452,3671,1791,2159,Tag0,unknown
1500041606529,0,98,2.1533203125E-5,51,90,43,766184,16745197,8363,23346,15452,3671,1791,2159,Tag0,unknown
1500041606529,0,86,1.8896484375000003E-5,51,90,43,766184,16745197,8363,23346,15452,3671,1791,2159,Tag0,unknown
1500041606529,0,101,2.2192382812500002E-5,51,90,43,766184,16745197,8363,23346,15452,3671,1791,2159,Tag0,unknown
1500041606529,0,123,2.70263671875E-5,51,90,43,766184,16745197,8363,23346,15452,3671,1791,2159,Tag0,unknown
1500041606530,0,-110,-2.4169921875E-5,51,90,43,766184,16745197,8363,23346,15452,3671,1791,2159,Tag0,unknown
1500041606530,0,-126,-2.7685546875E-5,51,90,43,766184,16745197,8363,23346,15452,3671,1791,2159,Tag0,unknown
1500041606530,0,115,2.52685546875E-5,51,90,43,766184,16745197,8363,23346,15452,3671,1791,2159,Tag0,unknown
1500041606544,0,-120,-2.63671875E-5,51,90,43,766184,16745197,8363,23346,15452,3671,1791,2159,Tag0,unknown
1500041606557,0,-88,-1.93359375E-5,51,90,43,766184,16745197,8363,23346,15452,3671,1791,2159,Tag0,unknown
1500041606557,0,-96,-2.109375E-5,51,90,43,766184,16745197,8363,23346,15452,3671,1791,2159,Tag0,unknown
1500041606558,0,107,2.35107421875E-5,51,90,43,766184,16745197,8363,23346,15452,3671,1791,2159,Tag0,unknown
1500041606558,0,69,1.51611328125E-5,51,90,43,766184,16745197,8363,23346,15452,3671,1791,2159,Tag0,unknown
1500041606559,0,89,1.95556640625E-5,51,90,43,766184,16745197,8363,23346,15452,3671,1791,2159,Tag0,unknown
1500041606559,0,-104,-2.28515625E-5,51,90,43,766184,16745197,8363,23346,15452,3671,1791,2159,Tag0,unknown
1500041606560,0,-72,-1.58203125E-5,51,90,43,766184,16745197,8363,23346,15452,3671,1791,2159,Tag0,unknown
1500041606560,0,-122,-2.6806640625E-5,51,90,43,766184,16745197,8363,23346,15452,3671,1791,2159,Tag0,unknown
1500041606561,0,70,1.5380859375E-5,51,90,43,766184,16745197,8363,23346,15452,3671,1791,2159,Tag0,unknown
1500041606561,0,59,1.29638671875E-5,51,90,43,766184,16745197,8363,23346,15452,3671,1791,2159,Tag0,unknown
1500041606562,0,97,2.13134765625E-5,51,90,43,766184,16745197,8363,23346,15452,3671,1791,2159,Tag0,unknown
1500041606562,0,121,2.6586914062500003E-5,51,90,43,766184,16745197,8363,23346,15452,3671,1791,2159,Tag0,unknown
1500041606563,0,104,2.28515625E-5,51,90,43,766184,16745197,8363,23346,15452,3671,1791,2159,Tag0,unknown
1500041606563,0,57,1.2524414062500001E-5,51,90,43,766184,16745197,8363,23346,15452,3671,1791,2159,Tag0,unknown
1500041606563,0,48,1.0546875E-5,51,90,43,766184,16745197,8363,23346,15452,3671,1791,2159,Tag0,unknown
1500041606563,0,76,1.669921875E-5,51,90,43,766184,16745197,8363,23346,15452,3671,1791,2159,Tag0,unknown
1500041606564,0,114,2.5048828125000003E-5,51,90,43,766184,16745197,8363,23346,15452,3671,1791,2159,Tag0,unknown
1500041606564,0,100,2.197265625E-5,51,90,43,766184,16745197,8363,23346,15452,3671,1791,2159,Tag0,unknown
1500041606565,0,52,1.142578125E-5,51,90,43,766184,16745197,8363,23346,15452,3671,1791,2159,Tag0,unknown
1500041606580,0,42,9.228515625000002E-6,51,90,43,766184,16745197,8363,23346,15452,3671,1791,2159,Tag0,unknown
1500041606591,0,87,1.91162109375E-5,51,90,43,766184,16745197,8363,23346,15452,3671,1791,2159,Tag0,unknown
1500041606592,0,-127,-2.79052734375E-5,51,90,43,766184,16745197,8363,23346,15452,3671,1791,2159,Tag0,unknown
1500041606593,0,112,2.4609375E-5,51,90,43,766184,16745197,8363,23346,15452,3671,1791,2159,Tag0,unknown
1500041606593,0,65,1.42822265625E-5,51,90,43,766184,16745197,8363,23346,15452,3671,1791,2159,Tag0,unknown
1500041606594,0,59,1.29638671875E-5,51,90,43,766184,16745197,8363,23346,15452,3671,1791,2159,Tag0,unknown
1500041606594,0,91,1.99951171875E-5,51,90,43,766184,16745197,8363,23346,15452,3671,1791,2159,Tag0,unknown
1500041606595,0,-124,-2.724609375E-5,51,90,43,766184,16745197,8363,23346,15452,3671,1791,2159,Tag0,unknown
1500041606596,0,-119,-2.6147460937500004E-5,51,90,43,766184,16745197,8363,23346,15452,3671,1791,2159,Tag0,unknown
1500041606596,0,83,1.82373046875E-5,51,90,43,766184,16745197,8363,23346,15452,3671,1791,2159,Tag0,unknown
1500041606597,0,36,7.91015625E-6,51,90,43,766184,16745197,8363,23346,15452,3671,1791,2159,Tag0,unknown
1500041606597,0,53,1.1645507812500002E-5,51,90,43,766184,16745197,8363,23346,15452,3671,1791,2159,Tag0,unknown
1500041606598,0,107,2.35107421875E-5,51,90,43,766184,16745197,8363,23346,15452,3671,1791,2159,Tag0,unknown
1500041606598,0,-126,-2.7685546875E-5,51,90,43,766184,16745197,8363,23346,15452,3671,1791,2159,Tag0,unknown
1500041606599,0,90,1.9775390625E-5,51,90,43,766184,16745197,8363,23346,15452,3671,1791,2159,Tag0,unknown
1500041606599,0,59,1.29638671875E-5,51,90,43,766184,16745197,8363,23346,15452,3671,1791,2159,Tag0,unknown
1500041606600,0,74,1.6259765625E-5,51,90,43,766184,16745197,8363,23346,15452,3671,1791,2159,Tag0,unknown
1500041606600,0,118,2.5927734375E-5,51,90,43,766184,16745197,8363,23346,15452,3671,1791,2159,Tag0,unknown
1500041606600,0,-107,-2.35107421875E-5,51,90,43,766184,16745197,8363,23346,15452,3671,1791,2159,Tag0,unknown
1500041606601,0,119,2.6147460937500004E-5,51,90,43,766184,16745197,8363,23346,15452,3671,1791,2159,Tag0,unknown
1500041606618,0,60,1.318359375E-5,51,90,43,766184,16745197,8363,23346,15452,3671,1791,2159,Tag0,unknown
1500041606625,0,41,9.008789062499999E-6,51,90,43,766184,16745197,8363,23346,15452,3671,1791,2159,Tag0,unknown
1500041606626,0,81,1.77978515625E-5,51,90,43,766184,16745197,8363,23346,15452,3671,1791,2159,Tag0,unknown
1500041606627,0,122,2.6806640625E-5,51,90,43,766184,16745197,8363,23346,15452,3671,1791,2159,Tag0,unknown
1500041606627,0,101,2.2192382812500002E-5,51,90,43,766184,16745197,8363,23346,15452,3671,1791,2159,Tag0,unknown
1500041606628,0,55,1.20849609375E-5,51,90,43,766184,16745197,8363,23346,15452,3671,1791,2159,Tag0,unknown
1500041606628,0,60,1.318359375E-5,51,90,43,766184,16745197,8363,23346,15452,3671,1791,2159,Tag0,unknown
1500041606630,0,100,2.197265625E-5,51,90,43,766184,16745197,8363,23346,15452,3671,1791,2159,Tag0,unknown
1500041606630,0,-125,-2.74658203125E-5,51,90,43,766184,16745197,8363,23346,15452,3671,1791,2159,Tag0,unknown
1500041606631,0,113,2.48291015625E-5,51,90,43,766184,16745197,8363,23346,15452,3671,1791,2159,Tag0,unknown
1500041606631,0,67,1.4721679687500002E-5,51,90,43,766184,16745197,8363,23346,15452,3671,1791,2159,Tag0,unknown
1500041606631,0,41,9.008789062499999E-6,51,90,43,766184,16745197,8363,23346,15452,3671,1791,2159,Tag0,unknown
1500041606632,0,59,1.29638671875E-5,51,90,43,766184,16745197,8363,23346,15452,3671,1791,2159,Tag0,unknown
1500041606632,0,87,1.91162109375E-5,51,90,43,766184,16745197,8363,23346,15452,3671,1791,2159,Tag0,unknown
1500041606633,0,72,1.58203125E-5,51,90,43,766184,16745197,8363,23346,15452,3671,1791,2159,Tag0,unknown
1500041606633,0,12,2.63671875E-6,51,90,43,766184,16745197,8363,23346,15452,3671,1791,2159,Tag0,unknown
1500041606634,0,-269,-5.9106445312499996E-5,51,90,43,766184,16745197,8363,23346,15452,3671,1791,2159,Tag0,unknown
1500041606634,0,20,4.39453125E-6,51,90,43,766184,16745197,8363,23346,15452,3671,1791,2159,Tag0,unknown
1500041606634,0,83,1.82373046875E-5,51,90,43,766184,16745197,8363,23346,15452,3671,1791,2159,Tag0,unknown
1500041606635,0,108,2.3730468750000002E-5,51,90,43,766184,16745197,8363,23346,15452,3671,1791,2159,Tag0,unknown
1500041606656,0,76,1.669921875E-5,51,90,43,766184,16745197,8363,23346,15452,3671,1791,2159,Tag0,unknown
1500041606676,0,40,8.7890625E-6,51,90,43,766184,16745197,8363,23346,15452,3671,1791,2159,Tag0,unknown
1500041606677,0,48,1.0546875E-5,51,90,43,766184,16745197,8363,23346,15452,3671,1791,2159,Tag0,unknown
1500041606678,0,75,1.64794921875E-5,51,90,43,766184,16745197,8363,23346,15452,3671,1791,2159,Tag0,unknown
1500041606678,0,72,1.58203125E-5,51,90,43,766184,16745197,8363,23346,15452,3671,1791,2159,Tag0,unknown
1500041606679,0,37,8.1298828125E-6,51,90,43,766184,16745197,8363,23346,15452,3671,1791,2159,Tag0,unknown
1500041606680,0,24,5.2734375E-6,51,90,43,766184,16745197,8363,23346,15452,3671,1791,2159,Tag0,unknown
1500041606680,0,51,1.1206054687499999E-5,51,90,43,766184,16745197,8363,23346,15452,3671,1791,2159,Tag0,unknown
1500041606681,0,89,1.95556640625E-5,51,90,43,766184,16745197,8363,23346,15452,3671,1791,2159,Tag0,unknown
1500041606683,0,101,2.2192382812500002E-5,51,90,43,766184,16745197,8363,23346,15452,3671,1791,2159,Tag0,unknown
1500041606684,0,56,1.23046875E-5,51,90,43,766184,16745197,8363,23346,15452,3671,1791,2159,Tag0,unknown
1500041606684,0,19,4.1748046875E-6,51,90,43,766184,16745197,8363,23346,15452,3671,1791,2159,Tag0,unknown
1500041606684,0,35,7.6904296875E-6,51,90,43,766184,16745197,8363,23346,15452,3671,1791,2159,Tag0,unknown
1500041606685,0,81,1.77978515625E-5,51,90,43,766184,16745197,8363,23346,15452,3671,1791,2159,Tag0,unknown
1500041606686,0,86,1.8896484375000003E-5,51,90,43,766184,16745197,8363,23346,15452,3671,1791,2159,Tag0,unknown
1500041606686,0,33,7.2509765625E-6,51,90,43,766184,16745197,8363,23346,15452,3671,1791,2159,Tag0,unknown
1500041606687,0,-266,-5.8447265625E-5,51,90,43,766184,16745197,8363,23346,15452,3671,1791,2159,Tag0,unknown
1500041606688,0,9,1.9775390625E-6,51,90,43,766184,16745197,8363,23346,15452,3671,1791,2159,Tag0,unknown
1500041606689,0,75,1.64794921875E-5,51,90,43,766184,16745197,8363,23346,15452,3671,1791,2159,Tag0,unknown
1500041606689,0,123,2.70263671875E-5,51,90,43,766184,16745197,8363,23346,15452,3671,1791,2159,Tag0,unknown
1500041606697,0,99,2.1752929687500003E-5,51,90,43,766184,16745197,8363,23346,15452,3671,1791,2159,Tag0,unknown
1500041606699,0,48,1.0546875E-5,51,90,43,766184,16745197,8363,23346,15452,3671,1791,2159,Tag0,unknown
1500041606699,0,36,7.91015625E-6,51,90,43,766184,16745197,8363,23346,15452,3671,1791,2159,Tag0,unknown
1500041606700,0,64,1.40625E-5,51,90,43,766184,16745197,8363,23346,15452,3671,1791,2159,Tag0,unknown
1500041606701,0,81,1.77978515625E-5,51,90,43,766184,16745197,8363,23346,15452,3671,1791,2159,Tag0,unknown
1500041606702,0,64,1.40625E-5,51,90,43,766184,16745197,8363,23346,15452,3671,1791,2159,Tag0,unknown
1500041606703,0,33,7.2509765625E-6,51,90,43,766184,16745197,8363,23346,15452,3671,1791,2159,Tag0,unknown
1500041606704,0,20,4.39453125E-6,51,90,43,766184,16745197,8363,23346,15452,3671,1791,2159,Tag0,unknown
1500041606705,0,21,4.614257812500001E-6,51,90,43,766184,16745197,8363,23346,15452,3671,1791,2159,Tag0,unknown
1500041606706,0,43,9.448242187500001E-6,51,90,43,766184,16745197,8363,23346,15452,3671,1791,2159,Tag0,unknown
1500041606732,0,51,1.1206054687499999E-5,51,90,43,766184,16745197,8363,23346,15452,3671,1791,2159,Tag0,unknown
1500041606743,0,16,3.515625E-6,51,90,43,766184,16745197,8363,23346,15452,3671,1791,2159,Tag0,unknown
1500041606744,0,-268,-5.8886718750000006E-5,51,90,43,766184,16745197,8363,23346,15452,3671,1791,2159,Tag0,unknown
1500041606745,0,9,1.9775390625E-6,51,90,43,766184,16745197,8363,23346,15452,3671,1791,2159,Tag0,unknown
1500041606745,0,58,1.2744140625E-5,51,90,43,766184,16745197,8363,23346,15452,3671,1791,2159,Tag0,unknown
1500041606746,0,65,1.42822265625E-5,51,90,43,766184,16745197,8363,23346,15452,3671,1791,2159,Tag0,unknown
1500041606747,0,32,7.03125E-6,51,90,43,766184,16745197,8363,23346,15452,3671,1791,2159,Tag0,unknown
1500041606747,0,28,6.15234375E-6,51,90,43,766184,16745197,8363,23346,15452,3671,1791,2159,Tag0,unknown
1500041606748,0,64,1.40625E-5,51,90,43,766184,16745197,8363,23346,15452,3671,1791,2159,Tag0,unknown
1500041606749,0,93,2.04345703125E-5,51,90,43,766184,16745197,8363,23346,15452,3671,1791,2159,Tag0,unknown
1500041606749,0,82,1.8017578124999998E-5,51,90,43,766184,16745197,8363,23346,15452,3671,1791,2159,Tag0,unknown
1500041606750,0,29,6.3720703125E-6,51,90,43,766184,16745197,8363,23346,15452,3671,1791,2159,Tag0,unknown
1500041606750,0,5,1.0986328125E-6,51,90,43,766184,16745197,8363,23346,15452,3671,1791,2159,Tag0,unknown
1500041606751,0,25,5.4931640625E-6,51,90,43,766184,16745197,8363,23346,15452,3671,1791,2159,Tag0,unknown
1500041606751,0,72,1.58203125E-5,51,90,43,766184,16745197,8363,23346,15452,3671,1791,2159,Tag0,unknown
1500041606752,0,89,1.95556640625E-5,51,90,43,766184,16745197,8363,23346,15452,3671,1791,2159,Tag0,unknown
1500041606752,0,65,1.42822265625E-5,51,90,43,766184,16745197,8363,23346,15452,3671,1791,2159,Tag0,unknown
1500041606753,0,48,1.0546875E-5,51,90,43,766184,16745197,8363,23346,15452,3671,1791,2159,Tag0,unknown
1500041606753,0,66,1.4501953125E-5,51,90,43,766184,16745197,8363,23346,15452,3671,1791,2159,Tag0,unknown
1500041606754,0,98,2.1533203125E-5,51,90,43,766184,16745197,8363,23346,15452,3671,1791,2159,Tag0,unknown
1500041606768,0,112,2.4609375E-5,51,90,43,766184,16745197,8363,23346,15452,3671,1791,2159,Tag0,unknown
1500041606778,0,92,2.021484375E-5,51,90,43,766184,16745197,8363,23346,15452,3671,1791,2159,Tag0,unknown
1500041606778,0,75,1.64794921875E-5,51,90,43,766184,16745197,8363,23346,15452,3671,1791,2159,Tag0,unknown
1500041606779,0,80,1.7578125E-5,51,90,43,766184,16745197,8363,23346,15452,3671,1791,2159,Tag0,unknown
1500041606780,0,97,2.13134765625E-5,51,90,43,766184,16745197,8363,23346,15452,3671,1791,2159,Tag0,unknown
1500041606780,0,99,2.1752929687500003E-5,51,90,43,766184,16745197,8363,23346,15452,3671,1791,2159,Tag0,unknown
1500041606781,0,80,1.7578125E-5,51,90,43,766184,16745197,8363,23346,15452,3671,1791,2159,Tag0,unknown
1500041606782,0,68,1.4941406250000001E-5,51,90,43,766184,16745197,8363,23346,15452,3671,1791,2159,Tag0,unknown
1500041606782,0,81,1.77978515625E-5,51,90,43,766184,16745197,8363,23346,15452,3671,1791,2159,Tag0,unknown
1500041606783,0,112,2.4609375E-5,51,90,43,766184,16745197,8363,23346,15452,3671,1791,2159,Tag0,unknown
1500041606784,0,-109,-2.39501953125E-5,51,90,43,766184,16745197,8363,23346,15452,3671,1791,2159,Tag0,unknown
1500041606785,0,-125,-2.74658203125E-5,50,100,43,16773647,7771,4646,2622,1026,927,427,462,Tag0,unknown
1500041606786,0,75,1.64794921875E-5,50,100,43,16773647,7771,4646,2622,1026,927,427,462,Tag0,unknown
1500041606787,0,52,1.142578125E-5,50,100,43,16773647,7771,4646,2622,1026,927,427,462,Tag0,unknown
1500041606788,0,98,2.1533203125E-5,50,100,43,16773647,7771,4646,2622,1026,927,427,462,Tag0,unknown
1500041606788,0,-105,-2.30712890625E-5,50,100,43,16773647,7771,4646,2622,1026,927,427,462,Tag0,unknown
1500041606789,0,-104,-2.28515625E-5,50,100,43,16773647,7771,4646,2622,1026,927,427,462,Tag0,unknown
1500041606789,0,105,2.30712890625E-5,50,100,43,16773647,7771,4646,2622,1026,927,427,462,Tag0,unknown
1500041606790,0,72,1.58203125E-5,50,100,43,16773647,7771,4646,2622,1026,927,427,462,Tag0,unknown
1500041606791,0,84,1.8457031250000004E-5,50,100,43,16773647,7771,4646,2622,1026,927,427,462,Tag0,unknown
1500041606792,0,118,2.5927734375E-5,50,100,43,16773647,7771,4646,2622,1026,927,427,462,Tag0,unknown
1500041606792,0,-128,-2.8125E-5,50,100,43,16773647,7771,4646,2622,1026,927,427,462,Tag0,unknown
1500041606793,0,91,1.99951171875E-5,50,100,43,16773647,7771,4646,2622,1026,927,427,462,Tag0,unknown
1500041606793,0,71,1.56005859375E-5,50,100,43,16773647,7771,4646,2622,1026,927,427,462,Tag0,unknown
1500041606794,0,84,1.8457031250000004E-5,50,100,43,16773647,7771,4646,2622,1026,927,427,462,Tag0,unknown
1500041606794,0,105,2.30712890625E-5,50,100,43,16773647,7771,4646,2622,1026,927,427,462,Tag0,unknown
1500041606808,0,96,2.109375E-5,50,100,43,16773647,7771,4646,2622,1026,927,427,462,Tag0,unknown
1500041606808,0,45,9.8876953125E-6,50,100,43,16773647,7771,4646,2622,1026,927,427,462,Tag0,unknown
1500041606828,0,32,7.03125E-6,50,100,43,16773647,7771,4646,2622,1026,927,427,462,Tag0,unknown
1500041606829,0,65,1.42822265625E-5,50,100,43,16773647,7771,4646,2622,1026,927,427,462,Tag0,unknown
1500041606829,0,108,2.3730468750000002E-5,50,100,43,16773647,7771,4646,2622,1026,927,427,462,Tag0,unknown
1500041606830,0,-124,-2.724609375E-5,50,100,43,16773647,7771,4646,2622,1026,927,427,462,Tag0,unknown
1500041606831,0,98,2.1533203125E-5,50,100,43,16773647,7771,4646,2622,1026,927,427,462,Tag0,unknown
1500041606831,0,69,1.51611328125E-5,50,100,43,16773647,7771,4646,2622,1026,927,427,462,Tag0,unknown
1500041606832,0,90,1.9775390625E-5,50,100,43,16773647,7771,4646,2622,1026,927,427,462,Tag0,unknown
1500041606833,0,-122,-2.6806640625E-5,50,100,43,16773647,7771,4646,2622,1026,927,427,462,Tag0,unknown
1500041606834,0,-118,-2.5927734375E-5,50,100,43,16773647,7771,4646,2622,1026,927,427,462,Tag0,unknown
1500041606835,0,91,1.99951171875E-5,50,100,43,16773647,7771,4646,2622,1026,927,427,462,Tag0,unknown
1500041606836,0,68,1.4941406250000001E-5,50,100,43,16773647,7771,4646,2622,1026,927,427,462,Tag0,unknown
1500041606837,0,98,2.1533203125E-5,50,100,43,16773647,7771,4646,2622,1026,927,427,462,Tag0,unknown
1500041606838,0,-123,-2.70263671875E-5,50,100,43,16773647,7771,4646,2622,1026,927,427,462,Tag0,unknown
1500041606839,0,-125,-2.74658203125E-5,50,100,43,16773647,7771,4646,2622,1026,927,427,462,Tag0,unknown
1500041606840,0,86,1.8896484375000003E-5,50,100,43,16773647,7771,4646,2622,1026,927,427,462,Tag0,unknown
1500041606843,0,43,9.448242187500001E-6,50,100,43,16773647,7771,4646,2622,1026,927,427,462,Tag0,unknown
1500041606844,0,49,1.07666015625E-5,50,100,43,16773647,7771,4646,2622,1026,927,427,462,Tag0,unknown
1500041606845,0,112,2.4609375E-5,50,100,43,16773647,7771,4646,2622,1026,927,427,462,Tag0,unknown
1500041606853,0,-105,-2.30712890625E-5,50,100,43,16773647,7771,4646,2622,1026,927,427,462,Tag0,unknown
1500041606854,0,118,2.5927734375E-5,50,100,43,16773647,7771,4646,2622,1026,927,427,462,Tag0,unknown
1500041606855,0,71,1.56005859375E-5,50,100,43,16773647,7771,4646,2622,1026,927,427,462,Tag0,unknown
1500041606856,0,88,1.93359375E-5,50,100,43,16773647,7771,4646,2622,1026,927,427,462,Tag0,unknown
1500041606857,0,-123,-2.70263671875E-5,50,100,43,16773647,7771,4646,2622,1026,927,427,462,Tag0,unknown
1500041606858,0,-89,-1.95556640625E-5,50,100,43,16773647,7771,4646,2622,1026,927,427,462,Tag0,unknown
1500041606858,0,-100,-2.197265625E-5,50,100,43,16773647,7771,4646,2622,1026,927,427,462,Tag0,unknown
1500041606859,0,108,2.3730468750000002E-5,50,100,43,16773647,7771,4646,2622,1026,927,427,462,Tag0,unknown
1500041606860,0,92,2.021484375E-5,50,100,43,16773647,7771,4646,2622,1026,927,427,462,Tag0,unknown
1500041606861,0,-126,-2.7685546875E-5,50,100,43,16773647,7771,4646,2622,1026,927,427,462,Tag0,unknown
1500041606861,0,-92,-2.021484375E-5,50,100,43,16773647,7771,4646,2622,1026,927,427,462,Tag0,unknown
1500041606862,0,-110,-2.4169921875E-5,50,100,43,16773647,7771,4646,2622,1026,927,427,462,Tag0,unknown
1500041606862,0,106,2.3291015625000003E-5,50,100,43,16773647,7771,4646,2622,1026,927,427,462,Tag0,unknown
1500041606863,0,117,2.5708007812499998E-5,50,100,43,16773647,7771,4646,2622,1026,927,427,462,Tag0,unknown
1500041606864,0,-117,-2.5708007812499998E-5,50,100,43,16773647,7771,4646,2622,1026,927,427,462,Tag0,unknown
1500041606865,0,-100,-2.197265625E-5,50,100,43,16773647,7771,4646,2622,1026,927,427,462,Tag0,unknown
1500041606865,0,-86,-1.8896484375000003E-5,50,100,43,16773647,7771,4646,2622,1026,927,427,462,Tag0,unknown
1500041606865,0,-111,-2.43896484375E-5,50,100,43,16773647,7771,4646,2622,1026,927,427,462,Tag0,unknown
1500041606866,0,117,2.5708007812499998E-5,50,100,43,16773647,7771,4646,2622,1026,927,427,462,Tag0,unknown
1500041606866,0,-121,-2.6586914062500003E-5,50,100,43,16773647,7771,4646,2622,1026,927,427,462,Tag0,unknown
1500041606880,0,-89,-1.95556640625E-5,50,100,43,16773647,7771,4646,2622,1026,927,427,462,Tag0,unknown
1500041606895,0,-107,-2.35107421875E-5,50,100,43,16773647,7771,4646,2622,1026,927,427,462,Tag0,unknown
1500041606896,0,-111,-2.43896484375E-5,50,100,43,16773647,7771,4646,2622,1026,927,427,462,Tag0,unknown
1500041606897,0,-64,-1.40625E-5,50,100,43,16773647,7771,4646,2622,1026,927,427,462,Tag0,unknown
1500041606897,0,-6,-1.318359375E-6,50,100,43,16773647,7771,4646,2622,1026,927,427,462,Tag0,unknown
1500041606898,0,295,6.48193359375E-5,50,100,43,16773647,7771,4646,2622,1026,927,427,462,Tag0,unknown
1500041606899,0,320,7.03125E-5,50,100,43,16773647,7771,4646,2622,1026,927,427,462,Tag0,unknown
1500041606899,0,316,6.943359375000001E-5,50,100,43,16773647,7771,4646,2622,1026,927,427,462,Tag0,unknown
1500041606900,0,328,7.207031249999999E-5,50,100,43,16773647,7771,4646,2622,1026,927,427,462,Tag0,unknown
1500041606900,0,153,3.3618164062500004E-5,50,100,43,16773647,7771,4646,2622,1026,927,427,462,Tag0,unknown
1500041606901,0,528,1.16015625E-4,50,100,43,16773647,7771,4646,2622,1026,927,427,462,Tag0,unknown
1500041606902,0,562,1.23486328125E-4,50,100,43,16773647,7771,4646,2622,1026,927,427,462,Tag0,unknown
1500041606902,0,522,1.14697265625E-4,50,100,43,16773647,7771,4646,2622,1026,927,427,462,Tag0,unknown
1500041606903,0,241,5.29541015625E-5,50,100,43,16773647,7771,4646,2622,1026,927,427,462,Tag0,unknown
1500041606903,0,523,1.149169921875E-4,50,100,43,16773647,7771,4646,2622,1026,927,427,462,Tag0,unknown
1500041606904,0,602,1.3227539062500001E-4,50,100,43,16773647,7771,4646,2622,1026,927,427,462,Tag0,unknown
1500041606904,0,396,8.701171875000001E-5,50,100,43,16773647,7771,4646,2622,1026,927,427,462,Tag0,unknown
1500041606905,0,628,1.3798828125E-4,50,100,43,16773647,7771,4646,2622,1026,927,427,462,Tag0,unknown
1500041606905,0,580,1.2744140625E-4,50,100,43,16773647,7771,4646,2622,1026,927,427,462,Tag0,unknown
1500041606905,0,569,1.250244140625E-4,50,100,43,16773647,7771,4646,2622,1026,927,427,462,Tag0,unknown
1500041606920,0,611,1.3425292968749999E-4,50,100,43,16773647,7771,4646,2622,1026,927,427,462,Tag0,unknown
1500041606929,0,404,8.876953125000001E-5,50,100,43,16773647,7771,4646,2622,1026,927,427,462,Tag0,unknown
1500041606929,0,410,9.0087890625E-5,50,100,43,16773647,7771,4646,2622,1026,927,427,462,Tag0,unknown
1500041606930,0,401,8.811035156250001E-5,50,100,43,16773647,7771,4646,2622,1026,927,427,462,Tag0,unknown
1500041606930,0,401,8.811035156250001E-5,50,100,43,16773647,7771,4646,2622,1026,927,427,462,Tag0,unknown
1500041606931,0,407,8.94287109375E-5,50,100,43,16773647,7771,4646,2622,1026,927,427,462,Tag0,unknown
1500041606931,0,429,9.42626953125E-5,50,100,43,16773647,7771,4646,2622,1026,927,427,462,Tag0,unknown
1500041606932,0,423,9.29443359375E-5,50,100,43,16773647,7771,4646,2622,1026,927,427,462,Tag0,unknown
1500041606932,0,612,1.3447265625000002E-4,50,100,43,16773647,7771,4646,2622,1026,927,427,462,Tag0,unknown
1500041606934,0,560,1.23046875E-4,50,100,43,16773647,7771,4646,2622,1026,927,427,462,Tag0,unknown
1500041606934,0,554,1.2172851562500001E-4,50,100,43,16773647,7771,4646,2622,1026,927,427,462,Tag0,unknown
1500041606935,0,560,1.23046875E-4,50,100,43,16773647,7771,4646,2622,1026,927,427,462,Tag0,unknown
1500041606935,0,530,1.16455078125E-4,50,100,43,16773647,7771,4646,2622,1026,927,427,462,Tag0,unknown
1500041606936,0,204,4.4824218749999996E-5,50,100,43,16773647,7771,4646,2622,1026,927,427,462,Tag0,unknown
1500041606936,0,151,3.31787109375E-5,50,100,43,16773647,7771,4646,2622,1026,927,427,462,Tag0,unknown
1500041606936,0,161,3.53759765625E-5,50,100,43,16773647,7771,4646,2622,1026,927,427,462,Tag0,unknown
1500041606936,0,209,4.59228515625E-5,50,100,43,16773647,7771,4646,2622,1026,927,427,462,Tag0,unknown
1500041606937,0,201,4.41650390625E-5,50,100,43,16773647,7771,4646,2622,1026,927,427,462,Tag0,unknown
1500041606937,0,368,8.0859375E-5,50,100,43,16773647,7771,4646,2622,1026,927,427,462,Tag0,unknown
1500041606938,0,299,6.56982421875E-5,50,100,43,16773647,7771,4646,2622,1026,927,427,462,Tag0,unknown
1500041606957,0,305,6.70166015625E-5,50,100,43,16773647,7771,4646,2622,1026,927,427,462,Tag0,unknown
1500041606962,0,332,7.294921875E-5,50,100,43,16773647,7771,4646,2622,1026,927,427,462,Tag0,unknown
1500041606962,0,354,7.778320312500001E-5,50,100,43,16773647,7771,4646,2622,1026,927,427,462,Tag0,unknown
1500041606963,0,322,7.0751953125E-5,50,100,43,16773647,7771,4646,2622,1026,927,427,462,Tag0,unknown
1500041606963,0,262,5.7568359375E-5,50,100,43,16773647,7771,4646,2622,1026,927,427,462,Tag0,unknown
1500041606964,0,-8,-1.7578125E-6,50,100,43,16773647,7771,4646,2622,1026,927,427,462,Tag0,unknown
1500041606965,0,274,6.0205078124999997E-5,50,100,43,16773647,7771,4646,2622,1026,927,427,462,Tag0,unknown
1500041606965,0,296,6.50390625E-5,50,100,43,16773647,7771,4646,2622,1026,927,427,462,Tag0,unknown
1500041606966,0,264,5.80078125E-5,50,100,43,16773647,7771,4646,2622,1026,927,427,462,Tag0,unknown
1500041606966,0,-60,-1.318359375E-5,50,100,43,16773647,7771,4646,2622,1026,927,427,462,Tag0,unknown
1500041606979,0,-101,-2.2192382812500002E-5,50,100,43,16773647,7771,4646,2622,1026,927,427,462,Tag0,unknown
1500041606980,0,-106,-2.3291015625000003E-5,50,100,43,16773647,7771,4646,2622,1026,927,427,462,Tag0,unknown
1500041606981,0,-117,-2.5708007812499998E-5,50,100,43,16773647,7771,4646,2622,1026,927,427,462,Tag0,unknown
1500041606981,0,113,2.48291015625E-5,50,100,43,16773647,7771,4646,2622,1026,927,427,462,Tag0,unknown
1500041606982,0,92,2.021484375E-5,50,100,43,16773647,7771,4646,2622,1026,927,427,462,Tag0,unknown
1500041606983,0,114,2.5048828125000003E-5,50,100,43,16773647,7771,4646,2622,1026,927,427,462,Tag0,unknown
1500041606984,0,-103,-2.26318359375E-5,50,100,43,16773647,7771,4646,2622,1026,927,427,462,Tag0,unknown
1500041606984,0,-60,-1.318359375E-5,50,100,43,16773647,7771,4646,2622,1026,927,427,462,Tag0,unknown
1500041606985,0,-61,-1.34033203125E-5,50,100,43,16773647,7771,4646,2622,1026,927,427,462,Tag0,unknown
1500041606985,0,-112,-2.4609375E-5,50,100,43,16773647,7771,4646,2622,1026,927,427,462,Tag0,unknown
1500041607041,0,100,2.197265625E-5,50,100,43,16773647,7771,4646,2622,1026,927,427,462,Tag0,unknown
1500041607067,0,114,2.5048828125000003E-5,50,100,43,16773647,7771,4646,2622,1026,927,427,462,Tag0,unknown
1500041607069,0,-106,-2.3291015625000003E-5,50,100,43,16773647,7771,4646,2622,1026,927,427,462,Tag0,unknown
1500041607070,0,-121,-2.6586914062500003E-5,50,100,43,16773647,7771,4646,2622,1026,927,427,462,Tag0,unknown
1500041607071,0,90,1.9775390625E-5,50,100,43,16773647,7771,4646,2622,1026,927,427,462,Tag0,unknown
1500041607073,0,73,1.6040039062500002E-5,50,100,43,16773647,7771,4646,2622,1026,927,427,462,Tag0,unknown
1500041607074,0,67,1.4721679687500002E-5,50,100,43,16773647,7771,4646,2622,1026,927,427,462,Tag0,unknown
1500041607076,0,67,1.4721679687500002E-5,50,100,43,16773647,7771,4646,2622,1026,927,427,462,Tag0,unknown
1500041607077,0,58,1.2744140625E-5,50,100,43,16773647,7771,4646,2622,1026,927,427,462,Tag0,unknown
1500041607078,0,32,7.03125E-6,50,100,43,16773647,7771,4646,2622,1026,927,427,462,Tag0,unknown
1500041607109,0,11,2.4169921875E-6,50,100,43,16773647,7771,4646,2622,1026,927,427,462,Tag0,unknown
1500041607135,0,20,4.39453125E-6,50,100,43,16773647,7771,4646,2622,1026,927,427,462,Tag0,unknown
1500041607137,0,43,9.448242187500001E-6,50,100,43,16773647,7771,4646,2622,1026,927,427,462,Tag0,unknown
1500041607138,0,60,1.318359375E-5,50,100,43,16773647,7771,4646,2622,1026,927,427,462,Tag0,unknown
1500041607140,0,19,4.1748046875E-6,50,100,43,16773647,7771,4646,2622,1026,927,427,462,Tag0,unknown
1500041607141,0,-296,-6.50390625E-5,50,100,43,16773647,7771,4646,2622,1026,927,427,462,Tag0,unknown
1500041607143,0,-295,-6.48193359375E-5,50,100,43,16773647,7771,4646,2622,1026,927,427,462,Tag0,unknown
1500041607145,0,2,4.39453125E-7,50,100,43,16773647,7771,4646,2622,1026,927,427,462,Tag0,unknown
1500041607146,0,21,4.614257812500001E-6,50,100,43,16773647,7771,4646,2622,1026,927,427,462,Tag0,unknown
1500041607148,0,-260,-5.712890625E-5,50,100,43,16773647,7771,4646,2622,1026,927,427,462,Tag0,unknown
1500041607168,0,-311,-6.833496093750001E-5,50,100,43,16773647,7771,4646,2622,1026,927,427,462,Tag0,unknown
1500041607182,0,-324,-7.119140625E-5,50,100,43,16773647,7771,4646,2622,1026,927,427,462,Tag0,unknown
1500041607183,0,-305,-6.70166015625E-5,50,100,43,16773647,7771,4646,2622,1026,927,427,462,Tag0,unknown
1500041607184,0,-310,-6.8115234375E-5,50,100,43,16773647,7771,4646,2622,1026,927,427,462,Tag0,unknown
1500041607184,0,-340,-7.470703125E-5,50,100,43,16773647,7771,4646,2622,1026,927,427,462,Tag0,unknown
1500041607185,0,-376,-8.261718750000001E-5,50,100,43,16773647,7771,4646,2622,1026,927,427,462,Tag0,unknown
1500041607186,0,-131,-2.87841796875E-5,50,100,43,16773647,7771,4646,2622,1026,927,427,462,Tag0,unknown
1500041607187,0,-358,-7.8662109375E-5,50,100,43,16773647,7771,4646,2622,1026,927,427,462,Tag0,unknown
1500041607188,0,-343,-7.53662109375E-5,50,100,43,16773647,7771,4646,2622,1026,927,427,462,Tag0,unknown
1500041607189,0,-380,-8.349609375E-5,50,100,43,16773647,7771,4646,2622,1026,927,427,462,Tag0,unknown
1500041607189,0,-172,-3.7792968750000005E-5,50,100,43,16773647,7771,4646,2622,1026,927,427,462,Tag0,unknown
1500041607190,0,-184,-4.04296875E-5,50,100,43,16773647,7771,4646,2622,1026,927,427,462,Tag0,unknown
1500041607191,0,-156,-3.427734375E-5,50,100,43,16773647,7771,4646,2622,1026,927,427,462,Tag0,unknown
1500041607192,0,-132,-2.900390625E-5,50,100,43,16773647,7771,4646,2622,1026,927,427,462,Tag0,unknown
1500041607194,0,-152,-3.33984375E-5,50,100,43,16773647,7771,4646,2622,1026,927,427,462,Tag0,unknown
1500041607194,0,-186,-4.0869140625E-5,50,100,43,16773647,7771,4646,2622,1026,927,427,462,Tag0,unknown
1500041607195,0,-183,-4.02099609375E-5,50,100,43,16773647,7771,4646,2622,1026,927,427,462,Tag0,unknown
1500041607196,0,-133,-2.92236328125E-5,50,100,43,16773647,7771,4646,2622,1026,927,427,462,Tag0,unknown
1500041607197,0,-329,-7.229003906250001E-5,50,100,43,16773647,7771,4646,2622,1026,927,427,462,Tag0,unknown
1500041607197,0,-323,-7.09716796875E-5,50,100,43,16773647,7771,4646,2622,1026,927,427,462,Tag0,unknown
1500041607198,0,-378,-8.3056640625E-5,50,100,43,16773647,7771,4646,2622,1026,927,427,462,Tag0,unknown
1500041607199,0,-168,-3.691406250000001E-5,50,100,43,16773647,7771,4646,2622,1026,927,427,462,Tag0,unknown
1500041607199,0,-135,-2.96630859375E-5,50,100,43,16773647,7771,4646,2622,1026,927,427,462,Tag0,unknown
1500041607199,0,-308,-6.767578125E-5,50,100,43,16773647,7771,4646,2622,1026,927,427,462,Tag0,unknown
1500041607200,0,-276,-6.064453125E-5,50,100,43,16773647,7771,4646,2622,1026,927,427,462,Tag0,unknown
1500041607200,0,-323,-7.09716796875E-5,50,100,43,16773647,7771,4646,2622,1026,927,427,462,Tag0,unknown
1500041607200,0,-378,-8.3056640625E-5,50,100,43,16773647,7771,4646,2622,1026,927,427,462,Tag0,unknown
1500041607201,0,-364,-7.998046875E-5,50,100,43,16773647,7771,4646,2622,1026,927,427,462,Tag0,unknown
1500041607201,0,-305,-6.70166015625E-5,50,100,43,16773647,7771,4646,2622,1026,927,427,462,Tag0,unknown
1500041607204,0,-279,-6.13037109375E-5,50,100,43,16773647,7771,4646,2622,1026,927,427,462,Tag0,unknown
1500041607205,0,-316,-6.943359375000001E-5,50,100,43,16773647,7771,4646,2622,1026,927,427,462,Tag0,unknown
1500041607205,0,-361,-7.93212890625E-5,50,100,43,16773647,7771,4646,2622,1026,927,427,462,Tag0,unknown
1500041607205,0,-359,-7.88818359375E-5,50,100,43,16773647,7771,4646,2622,1026,927,427,462,Tag0,unknown
1500041607205,0,-317,-6.96533203125E-5,50,100,43,16773647,7771,4646,2622,1026,927,427,462,Tag0,unknown
1500041607206,0,-300,-6.591796875E-5,50,100,43,16773647,7771,4646,2622,1026,927,427,462,Tag0,unknown
1500041607206,0,-332,-7.294921875E-5,50,100,43,16773647,7771,4646,2622,1026,927,427,462,Tag0,unknown
1500041607207,0,-370,-8.1298828125E-5,50,100,43,16773647,7771,4646,2622,1026,927,427,462,Tag0,unknown
1500041607207,0,-370,-8.1298828125E-5,50,100,43,16773647,7771,4646,2622,1026,927,427,462,Tag0,unknown
1500041607207,0,-349,-7.668457031250001E-5,50,100,43,16773647,7771,4646,2622,1026,927,427,462,Tag0,unknown
1500041607207,0,-338,-7.426757812499999E-5,50,100,43,16773647,7771,4646,2622,1026,927,427,462,Tag0,unknown
1500041607208,0,-362,-7.954101562500001E-5,50,100,43,16773647,7771,4646,2622,1026,927,427,462,Tag0,unknown
1500041607208,0,-146,-3.2080078125000004E-5,50,100,43,16773647,7771,4646,2622,1026,927,427,462,Tag0,unknown
1500041607208,0,-146,-3.2080078125000004E-5,50,100,43,16773647,7771,4646,2622,1026,927,427,462,Tag0,unknown
1500041607209,0,-359,-7.88818359375E-5,50,100,43,16773647,7771,4646,2622,1026,927,427,462,Tag0,unknown
1500041607209,0,-317,-6.96533203125E-5,50,100,43,16773647,7771,4646,2622,1026,927,427,462,Tag0,unknown
1500041607209,0,-329,-7.229003906250001E-5,50,100,43,16773647,7771,4646,2622,1026,927,427,462,Tag0,unknown
1500041607214,0,-132,-2.900390625E-5,50,100,43,16773647,7771,4646,2622,1026,927,427,462,Tag0,unknown
1500041607214,0,-152,-3.33984375E-5,50,100,43,16773647,7771,4646,2622,1026,927,427,462,Tag0,unknown
1500041607215,0,-372,-8.173828125E-5,50,100,43,16773647,7771,4646,2622,1026,927,427,462,Tag0,unknown
1500041607215,0,-324,-7.119140625E-5,50,100,43,16773647,7771,4646,2622,1026,927,427,462,Tag0,unknown
1500041607216,0,-321,-7.053222656250001E-5,50,100,43,16773647,7771,4646,2622,1026,927,427,462,Tag0,unknown
1500041607217,0,-348,-7.646484375E-5,50,100,43,16773647,7771,4646,2622,1026,927,427,462,Tag0,unknown
1500041607217,0,-353,-7.75634765625E-5,50,100,43,16773647,7771,4646,2622,1026,927,427,462,Tag0,unknown
1500041607218,0,-312,-6.85546875E-5,50,100,43,16773647,7771,4646,2622,1026,927,427,462,Tag0,unknown
1500041607219,0,-281,-6.17431640625E-5,50,100,43,16773647,7771,4646,2622,1026,927,427,462,Tag0,unknown
1500041607219,0,-300,-6.591796875E-5,50,100,43,16773647,7771,4646,2622,1026,927,427,462,Tag0,unknown
1500041607220,0,-358,-7.8662109375E-5,50,100,43,16773647,7771,4646,2622,1026,927,427,462,Tag0,unknown
1500041607220,0,-370,-8.1298828125E-5,50,100,43,16773647,7771,4646,2622,1026,927,427,462,Tag0,unknown
1500041607221,0,-333,-7.316894531249999E-5,50,100,43,16773647,7771,4646,2622,1026,927,427,462,Tag0,unknown
1500041607222,0,-292,-6.416015625000001E-5,50,100,43,16773647,7771,4646,2622,1026,927,427,462,Tag0,unknown
1500041607224,0,-277,-6.0864257812500005E-5,50,100,43,16773647,7771,4646,2622,1026,927,427,462,Tag0,unknown
1500041607224,0,-298,-6.5478515625E-5,50,100,43,16773647,7771,4646,2622,1026,927,427,462,Tag0,unknown
1500041607225,0,-311,-6.833496093750001E-5,50,100,43,16773647,7771,4646,2622,1026,927,427,462,Tag0,unknown
1500041607225,0,-281,-6.17431640625E-5,50,100,43,16773647,7771,4646,2622,1026,927,427,462,Tag0,unknown
1500041607225,0,21,4.614257812500001E-6,50,100,43,16773647,7771,4646,2622,1026,927,427,462,Tag0,unknown
1500041607226,0,34,7.4707031250000005E-6,50,100,63,16773647,7771,4646,2622,1026,927,427,462,Tag0,unknown
1500041607226,0,-274,-6.0205078124999997E-5,50,100,63,16773647,7771,4646,2622,1026,927,427,462,Tag0,unknown
1500041607227,0,-317,-6.96533203125E-5,50,100,63,16773647,7771,4646,2622,1026,927,427,462,Tag0,unknown
1500041607228,0,-299,-6.56982421875E-5,50,100,63,16773647,7771,4646,2622,1026,927,427,462,Tag0,unknown
1500041607228,0,-262,-5.7568359375E-5,50,100,63,16773647,7771,4646,2622,1026,927,427,462,Tag0,unknown
1500041607229,0,-265,-5.82275390625E-5,50,100,63,16773647,7771,4646,2622,1026,927,427,462,Tag0,unknown
1500041607229,0,-315,-6.92138671875E-5,50,100,63,16773647,7771,4646,2622,1026,927,427,462,Tag0,unknown
1500041607229,0,-365,-8.02001953125E-5,50,100,63,16773647,7771,4646,2622,1026,927,427,462,Tag0,unknown
1500041607229,0,-370,-8.1298828125E-5,50,100,63,16773647,7771,4646,2622,1026,927,427,462,Tag0,unknown
1500041607230,0,-322,-7.0751953125E-5,50,100,63,16773647,7771,4646,2622,1026,927,427,462,Tag0,unknown
1500041607230,0,-281,-6.17431640625E-5,50,100,63,16773647,7771,4646,2622,1026,927,427,462,Tag0,unknown
1500041607230,0,-298,-6.5478515625E-5,50,100,63,16773647,7771,4646,2622,1026,927,427,462,Tag0,unknown
1500041607230,0,-349,-7.668457031250001E-5,50,100,63,16773647,7771,4646,2622,1026,927,427,462,Tag0,unknown
1500041607230,0,-365,-8.02001953125E-5,50,100,63,16773647,7771,4646,2622,1026,927,427,462,Tag0,unknown
1500041607231,0,-337,-7.40478515625E-5,50,100,63,16773647,7771,4646,2622,1026,927,427,462,Tag0,unknown
1500041607231,0,-305,-6.70166015625E-5,50,100,63,16773647,7771,4646,2622,1026,927,427,462,Tag0,unknown
1500041607232,0,-322,-7.0751953125E-5,50,100,63,16773647,7771,4646,2622,1026,927,427,462,Tag0,unknown
1500041607232,0,-373,-8.19580078125E-5,50,100,63,16773647,7771,4646,2622,1026,927,427,462,Tag0,unknown
1500041607233,0,-381,-8.371582031250001E-5,50,100,63,16773647,7771,4646,2622,1026,927,427,462,Tag0,unknown
1500041607233,0,-329,-7.229003906250001E-5,50,100,63,16773647,7771,4646,2622,1026,927,427,462,Tag0,unknown
1500041607233,0,-291,-6.39404296875E-5,50,100,63,16773647,7771,4646,2622,1026,927,427,462,Tag0,unknown
1500041607233,0,-298,-6.5478515625E-5,50,100,63,16773647,7771,4646,2622,1026,927,427,462,Tag0,unknown
1500041607234,0,-330,-7.2509765625E-5,50,100,63,16773647,7771,4646,2622,1026,927,427,462,Tag0,unknown
1500041607234,0,-329,-7.229003906250001E-5,50,100,63,16773647,7771,4646,2622,1026,927,427,462,Tag0,unknown
1500041607234,0,-302,-6.6357421875E-5,50,100,63,16773647,7771,4646,2622,1026,927,427,462,Tag0,unknown
1500041607237,0,-264,-5.80078125E-5,50,100,63,16773647,7771,4646,2622,1026,927,427,462,Tag0,unknown
1500041607237,0,2,4.39453125E-7,50,100,63,16773647,7771,4646,2622,1026,927,427,462,Tag0,unknown
1500041607238,0,-290,-6.3720703125E-5,50,100,63,16773647,7771,4646,2622,1026,927,427,462,Tag0,unknown
1500041607238,0,-318,-6.9873046875E-5,50,100,63,16773647,7771,4646,2622,1026,927,427,462,Tag0,unknown
1500041607238,0,-299,-6.56982421875E-5,50,100,63,16773647,7771,4646,2622,1026,927,427,462,Tag0,unknown
1500041607238,0,-274,-6.0205078124999997E-5,50,100,63,16773647,7771,4646,2622,1026,927,427,462,Tag0,unknown
1500041607239,0,-278,-6.108398437500001E-5,50,100,63,16773647,7771,4646,2622,1026,927,427,462,Tag0,unknown
1500041607239,0,-312,-6.85546875E-5,50,100,63,16773647,7771,4646,2622,1026,927,427,462,Tag0,unknown
1500041607239,0,-326,-7.163085937500001E-5,50,100,63,16773647,7771,4646,2622,1026,927,427,462,Tag0,unknown
1500041607239,0,-295,-6.48193359375E-5,50,100,63,16773647,7771,4646,2622,1026,927,427,462,Tag0,unknown
1500041607240,0,-260,-5.712890625E-5,50,100,63,16773647,7771,4646,2622,1026,927,427,462,Tag0,unknown
1500041607240,0,6,1.318359375E-6,50,100,63,16773647,7771,4646,2622,1026,927,427,462,Tag0,unknown
1500041607240,0,-281,-6.17431640625E-5,50,100,63,16773647,7771,4646,2622,1026,927,427,462,Tag0,unknown
1500041607240,0,-307,-6.74560546875E-5,50,100,63,16773647,7771,4646,2622,1026,927,427,462,Tag0,unknown
1500041607241,0,-292,-6.416015625000001E-5,50,100,63,16773647,7771,4646,2622,1026,927,427,462,Tag0,unknown
1500041607241,0,5,1.0986328125E-6,50,100,63,16773647,7771,4646,2622,1026,927,427,462,Tag0,unknown
1500041607241,0,21,4.614257812500001E-6,50,100,63,16773647,7771,4646,2622,1026,927,427,462,Tag0,unknown
1500041607241,0,-265,-5.82275390625E-5,50,100,63,16773647,7771,4646,2622,1026,927,427,462,Tag0,unknown
1500041607242,0,-298,-6.5478515625E-5,50,100,63,16773647,7771,4646,2622,1026,927,427,462,Tag0,unknown
1500041607242,0,-294,-6.4599609375E-5,50,100,63,16773647,7771,4646,2622,1026,927,427,462,Tag0,unknown
1500041607257,0,-258,-5.6689453125000004E-5,50,100,63,16773647,7771,4646,2622,1026,927,427,462,Tag0,unknown
1500041607258,0,28,6.15234375E-6,50,100,63,16773647,7771,4646,2622,1026,927,427,462,Tag0,unknown
1500041607258,0,16,3.515625E-6,50,100,63,16773647,7771,4646,2622,1026,927,427,462,Tag0,unknown
1500041607264,0,-270,-5.9326171875E-5,50,100,63,16773647,7771,4646,2622,1026,927,427,462,Tag0,unknown
1500041607264,0,-273,-5.998535156250001E-5,50,100,63,16773647,7771,4646,2622,1026,927,427,462,Tag0,unknown
1500041607264,0,23,5.0537109375E-6,50,100,63,16773647,7771,4646,2622,1026,927,427,462,Tag0,unknown
1500041607265,0,43,9.448242187500001E-6,50,100,63,16773647,7771,4646,2622,1026,927,427,462,Tag0,unknown
1500041607265,0,12,2.63671875E-6,50,100,63,16773647,7771,4646,2622,1026,927,427,462,Tag0,unknown
1500041607265,0,-281,-6.17431640625E-5,50,100,63,16773647,7771,4646,2622,1026,927,427,462,Tag0,unknown
1500041607265,0,-275,-6.04248046875E-5,50,100,63,16773647,7771,4646,2622,1026,927,427,462,Tag0,unknown
1500041607266,0,10,2.197265625E-6,50,100,63,16773647,7771,4646,2622,1026,927,427,462,Tag0,unknown
1500041607266,0,44,9.66796875E-6,50,100,63,16773647,7771,4646,2622,1026,927,427,462,Tag0,unknown
1500041607266,0,43,9.448242187500001E-6,50,100,63,16773647,7771,4646,2622,1026,927,427,462,Tag0,unknown
1500041607266,0,0,0.0,50,100,63,16773647,7771,4646,2622,1026,927,427,462,Tag0,unknown
1500041607267,0,-275,-6.04248046875E-5,50,100,63,16773647,7771,4646,2622,1026,927,427,462,Tag0,unknown
1500041607267,0,-258,-5.6689453125000004E-5,50,100,63,16773647,7771,4646,2622,1026,927,427,462,Tag0,unknown
1500041607267,0,3,6.591796875E-7,50,100,63,16773647,7771,4646,2622,1026,927,427,462,Tag0,unknown
1500041607267,0,-281,-6.17431640625E-5,50,100,63,16773647,7771,4646,2622,1026,927,427,462,Tag0,unknown
1500041607268,0,-316,-6.943359375000001E-5,50,100,63,16773647,7771,4646,2622,1026,927,427,462,Tag0,unknown
1500041607268,0,-321,-7.053222656250001E-5,50,100,63,16773647,7771,4646,2622,1026,927,427,462,Tag0,unknown
1500041607281,0,-267,-5.86669921875E-5,50,100,63,16773647,7771,4646,2622,1026,927,427,462,Tag0,unknown
1500041607281,0,38,8.349609375E-6,50,100,63,16773647,7771,4646,2622,1026,927,427,462,Tag0,unknown
1500041607282,0,40,8.7890625E-6,50,100,63,16773647,7771,4646,2622,1026,927,427,462,Tag0,unknown
1500041607282,0,-268,-5.8886718750000006E-5,50,100,63,16773647,7771,4646,2622,1026,927,427,462,Tag0,unknown
1500041607282,0,-314,-6.8994140625E-5,50,100,63,16773647,7771,4646,2622,1026,927,427,462,Tag0,unknown
1500041607282,0,-296,-6.50390625E-5,50,100,63,16773647,7771,4646,2622,1026,927,427,462,Tag0,unknown
1500041607283,0,9,1.9775390625E-6,50,100,63,16773647,7771,4646,2622,1026,927,427,462,Tag0,unknown
1500041607283,0,26,5.712890625E-6,50,100,63,16773647,7771,4646,2622,1026,927,427,462,Tag0,unknown
1500041607283,0,5,1.0986328125E-6,50,100,63,16773647,7771,4646,2622,1026,927,427,462,Tag0,unknown
1500041607298,0,-269,-5.9106445312499996E-5,50,100,63,16773647,7771,4646,2622,1026,927,427,462,Tag0,unknown
1500041607315,0,-268,-5.8886718750000006E-5,50,100,63,16773647,7771,4646,2622,1026,927,427,462,Tag0,unknown
1500041607316,0,6,1.318359375E-6,50,100,63,16773647,7771,4646,2622,1026,927,427,462,Tag0,unknown
1500041607316,0,24,5.2734375E-6,50,100,63,16773647,7771,4646,2622,1026,927,427,462,Tag0,unknown
1500041607317,0,-258,-5.6689453125000004E-5,50,100,63,16773647,7771,4646,2622,1026,927,427,462,Tag0,unknown
1500041607318,0,-297,-6.525878906250001E-5,50,100,63,16773647,7771,4646,2622,1026,927,427,462,Tag0,unknown
1500041607318,0,-290,-6.3720703125E-5,50,100,63,16773647,7771,4646,2622,1026,927,427,462,Tag0,unknown
1500041607319,0,23,5.0537109375E-6,50,100,63,16773647,7771,4646,2622,1026,927,427,462,Tag0,unknown
1500041607320,0,52,1.142578125E-5,50,100,63,16773647,7771,4646,2622,1026,927,427,462,Tag0,unknown
1500041607320,0,19,4.1748046875E-6,50,100,63,16773647,7771,4646,2622,1026,927,427,462,Tag0,unknown
1500041607321,0,-285,-6.26220703125E-5,50,100,63,16773647,7771,4646,2622,1026,927,427,462,Tag0,unknown
1500041607322,0,-276,-6.064453125E-5,50,100,63,16773647,7771,4646,2622,1026,927,427,462,Tag0,unknown
1500041607322,0,26,5.712890625E-6,50,100,63,16773647,7771,4646,2622,1026,927,427,462,Tag0,unknown
1500041607323,0,71,1.56005859375E-5,50,100,63,16773647,7771,4646,2622,1026,927,427,462,Tag0,unknown
1500041607323,0,70,1.5380859375E-5,50,100,63,16773647,7771,4646,2622,1026,927,427,462,Tag0,unknown
1500041607334,0,41,9.008789062499999E-6,50,100,63,16773647,7771,4646,2622,1026,927,427,462,Tag0,unknown
1500041607335,0,34,7.4707031250000005E-6,50,100,63,16773647,7771,4646,2622,1026,927,427,462,Tag0,unknown
1500041607336,0,45,9.8876953125E-6,50,100,63,16773647,7771,4646,2622,1026,927,427,462,Tag0,unknown
1500041607338,0,53,1.1645507812500002E-5,50,100,63,16773647,7771,4646,2622,1026,927,427,462,Tag0,unknown
1500041607339,0,16,3.515625E-6,50,100,63,16773647,7771,4646,2622,1026,927,427,462,Tag0,unknown
1500041607340,0,-294,-6.4599609375E-5,50,100,63,16773647,7771,4646,2622,1026,927,427,462,Tag0,unknown
1500041607350,0,-292,-6.416015625000001E-5,50,100,63,16773647,7771,4646,2622,1026,927,427,462,Tag0,unknown
1500041607351,0,20,4.39453125E-6,50,100,63,16773647,7771,4646,2622,1026,927,427,462,Tag0,unknown
1500041607352,0,65,1.42822265625E-5,50,100,63,16773647,7771,4646,2622,1026,927,427,462,Tag0,unknown
1500041607353,0,54,1.1865234375000001E-5,50,100,63,16773647,7771,4646,2622,1026,927,427,462,Tag0,unknown
1500041607353,0,18,3.955078125E-6,50,100,63,16773647,7771,4646,2622,1026,927,427,462,Tag0,unknown
1500041607354,0,0,0.0,50,100,63,16773647,7771,4646,2622,1026,927,427,462,Tag0,unknown
1500041607355,0,38,8.349609375E-6,50,100,63,16773647,7771,4646,2622,1026,927,427,462,Tag0,unknown
1500041607355,0,102,2.2412109374999998E-5,50,100,63,16773647,7771,4646,2622,1026,927,427,462,Tag0,unknown
1500041607357,0,121,2.6586914062500003E-5,50,100,63,16773647,7771,4646,2622,1026,927,427,462,Tag0,unknown
1500041607357,0,68,1.4941406250000001E-5,50,100,63,16773647,7771,4646,2622,1026,927,427,462,Tag0,unknown
1500041607367,0,22,4.833984375E-6,50,100,63,16773647,7771,4646,2622,1026,927,427,462,Tag0,unknown
1500041607367,0,36,7.91015625E-6,50,100,63,16773647,7771,4646,2622,1026,927,427,462,Tag0,unknown
1500041607368,0,72,1.58203125E-5,50,100,63,16773647,7771,4646,2622,1026,927,427,462,Tag0,unknown
1500041607369,0,86,1.8896484375000003E-5,50,100,63,16773647,7771,4646,2622,1026,927,427,462,Tag0,unknown
1500041607369,0,55,1.20849609375E-5,50,100,63,16773647,7771,4646,2622,1026,927,427,462,Tag0,unknown
1500041607370,0,38,8.349609375E-6,50,100,63,16773647,7771,4646,2622,1026,927,427,462,Tag0,unknown
1500041607371,0,65,1.42822265625E-5,50,100,63,16773647,7771,4646,2622,1026,927,427,462,Tag0,unknown
1500041607371,0,113,2.48291015625E-5,50,100,63,16773647,7771,4646,2622,1026,927,427,462,Tag0,unknown
1500041607372,0,115,2.52685546875E-5,50,100,63,16773647,7771,4646,2622,1026,927,427,462,Tag0,unknown
1500041607373,0,68,1.4941406250000001E-5,50,100,63,16773647,7771,4646,2622,1026,927,427,462,Tag0,unknown
1500041607386,0,35,7.6904296875E-6,50,100,63,16773647,7771,4646,2622,1026,927,427,462,Tag0,unknown
1500041607400,0,43,9.448242187500001E-6,50,100,63,16773647,7771,4646,2622,1026,927,427,462,Tag0,unknown
1500041607401,0,69,1.51611328125E-5,50,100,63,16773647,7771,4646,2622,1026,927,427,462,Tag0,unknown
1500041607402,0,80,1.7578125E-5,50,100,63,16773647,7771,4646,2622,1026,927,427,462,Tag0,unknown
1500041607403,0,64,1.40625E-5,50,100,63,16773647,7771,4646,2622,1026,927,427,462,Tag0,unknown
1500041607404,0,33,7.2509765625E-6,50,100,63,16773647,7771,4646,2622,1026,927,427,462,Tag0,unknown
1500041607404,0,19,4.1748046875E-6,50,100,63,16773647,7771,4646,2622,1026,927,427,462,Tag0,unknown
1500041607405,0,39,8.5693359375E-6,50,100,63,16773647,7771,4646,2622,1026,927,427,462,Tag0,unknown
1500041607406,0,56,1.23046875E-5,50,100,63,16773647,7771,4646,2622,1026,927,427,462,Tag0,unknown
1500041607407,0,35,7.6904296875E-6,50,100,63,16773647,7771,4646,2622,1026,927,427,462,Tag0,unknown
1500041607408,0,4,8.7890625E-7,50,100,63,16773647,7771,4646,2622,1026,927,427,462,Tag0,unknown
1500041607409,0,17,3.7353515625000003E-6,50,100,63,16773647,7771,4646,2622,1026,927,427,462,Tag0,unknown
1500041607409,0,71,1.56005859375E-5,50,100,63,16773647,7771,4646,2622,1026,927,427,462,Tag0,unknown
1500041607410,0,120,2.63671875E-5,50,100,63,16773647,7771,4646,2622,1026,927,427,462,Tag0,unknown
1500041607410,0,102,2.2412109374999998E-5,50,100,63,16773647,7771,4646,2622,1026,927,427,462,Tag0,unknown
1500041607411,0,44,9.66796875E-6,50,100,63,16773647,7771,4646,2622,1026,927,427,462,Tag0,unknown
1500041607411,0,17,3.7353515625000003E-6,50,100,63,16773647,7771,4646,2622,1026,927,427,462,Tag0,unknown
1500041607412,0,51,1.1206054687499999E-5,50,100,63,16773647,7771,4646,2622,1026,927,427,462,Tag0,unknown
1500041607412,0,101,2.2192382812500002E-5,50,100,63,16773647,7771,4646,2622,1026,927,427,462,Tag0,unknown
1500041607413,0,101,2.2192382812500002E-5,50,100,63,16773647,7771,4646,2622,1026,927,427,462,Tag0,unknown
1500041607419,0,59,1.29638671875E-5,50,100,63,16773647,7771,4646,2622,1026,927,427,462,Tag0,unknown
1500041607434,0,44,9.66796875E-6,50,100,63,16773647,7771,4646,2622,1026,927,427,462,Tag0,unknown
1500041607435,0,72,1.58203125E-5,50,100,63,16773647,7771,4646,2622,1026,927,427,462,Tag0,unknown
1500041607435,0,101,2.2192382812500002E-5,50,100,63,16773647,7771,4646,2622,1026,927,427,462,Tag0,unknown
1500041607436,0,87,1.91162109375E-5,50,100,63,16773647,7771,4646,2622,1026,927,427,462,Tag0,unknown
1500041607437,0,39,8.5693359375E-6,50,100,63,16773647,7771,4646,2622,1026,927,427,462,Tag0,unknown
1500041607437,0,19,4.1748046875E-6,50,100,63,16773647,7771,4646,2622,1026,927,427,462,Tag0,unknown
1500041607438,0,48,1.0546875E-5,50,100,63,16773647,7771,4646,2622,1026,927,427,462,Tag0,unknown
1500041607438,0,87,1.91162109375E-5,50,100,63,16773647,7771,4646,2622,1026,927,427,462,Tag0,unknown
1500041607439,0,75,1.64794921875E-5,50,100,63,16773647,7771,4646,2622,1026,927,427,462,Tag0,unknown
1500041607453,0,10,2.197265625E-6,50,100,63,16773647,7771,4646,2622,1026,927,427,462,Tag0,unknown
1500041607467,0,-279,-6.13037109375E-5,50,100,63,16773647,7771,4646,2622,1026,927,427,462,Tag0,unknown
1500041607468,0,-257,-5.64697265625E-5,50,100,63,16773647,7771,4646,2622,1026,927,427,462,Tag0,unknown
1500041607469,0,43,9.448242187500001E-6,50,100,63,16773647,7771,4646,2622,1026,927,427,462,Tag0,unknown
1500041607470,0,75,1.64794921875E-5,50,100,63,16773647,7771,4646,2622,1026,927,427,462,Tag0,unknown
1500041607470,0,56,1.23046875E-5,50,100,63,16773647,7771,4646,2622,1026,927,427,462,Tag0,unknown
1500041607471,0,22,4.833984375E-6,50,100,63,16773647,7771,4646,2622,1026,927,427,462,Tag0,unknown
1500041607473,0,16,3.515625E-6,50,100,63,16773647,7771,4646,2622,1026,927,427,462,Tag0,unknown
1500041607474,0,37,8.1298828125E-6,50,100,63,16773647,7771,4646,2622,1026,927,427,462,Tag0,unknown
1500041607474,0,38,8.349609375E-6,50,100,63,16773647,7771,4646,2622,1026,927,427,462,Tag0,unknown
1500041607475,0,-264,-5.80078125E-5,50,100,63,16773647,7771,4646,2622,1026,927,427,462,Tag0,unknown
1500041607475,0,-309,-6.78955078125E-5,50,100,63,16773647,7771,4646,2622,1026,927,427,462,Tag0,unknown
1500041607476,0,-281,-6.17431640625E-5,50,100,63,16773647,7771,4646,2622,1026,927,427,462,Tag0,unknown
1500041607477,0,41,9.008789062499999E-6,50,100,63,16773647,7771,4646,2622,1026,927,427,462,Tag0,unknown
1500041607477,0,70,1.5380859375E-5,50,100,63,16773647,7771,4646,2622,1026,927,427,462,Tag0,unknown
1500041607477,0,24,5.2734375E-6,50,100,63,16773647,7771,4646,2622,1026,927,427,462,Tag0,unknown
1500041607478,0,-289,-6.35009765625E-5,50,100,63,16773647,7771,4646,2622,1026,927,427,462,Tag0,unknown
1500041607478,0,-302,-6.6357421875E-5,50,100,63,16773647,7771,4646,2622,1026,927,427,462,Tag0,unknown
1500041607479,0,-263,-5.7788085937500005E-5,50,100,63,16773647,7771,4646,2622,1026,927,427,462,Tag0,unknown
1500041607479,0,32,7.03125E-6,50,100,63,16773647,7771,4646,2622,1026,927,427,462,Tag0,unknown
1500041607490,0,24,5.2734375E-6,50,100,63,16773647,7771,4646,2622,1026,927,427,462,Tag0,unknown
1500041607501,0,-258,-5.6689453125000004E-5,50,100,63,16773647,7771,4646,2622,1026,927,427,462,Tag0,unknown
1500041607502,0,1,2.197265625E-7,50,100,63,16773647,7771,4646,2622,1026,927,427,462,Tag0,unknown
1500041607503,0,27,5.9326171875000005E-6,50,100,63,16773647,7771,4646,2622,1026,927,427,462,Tag0,unknown
1500041607504,0,48,1.0546875E-5,50,100,63,16773647,7771,4646,2622,1026,927,427,462,Tag0,unknown
1500041607504,0,26,5.712890625E-6,50,100,63,16773647,7771,4646,2622,1026,927,427,462,Tag0,unknown
1500041607505,0,-284,-6.240234375E-5,50,100,63,16773647,7771,4646,2622,1026,927,427,462,Tag0,unknown
1500041607506,0,-308,-6.767578125E-5,50,100,63,16773647,7771,4646,2622,1026,927,427,462,Tag0,unknown
1500041607507,0,9,1.9775390625E-6,50,100,63,16773647,7771,4646,2622,1026,927,427,462,Tag0,unknown
1500041607508,0,91,1.99951171875E-5,50,100,63,16773647,7771,4646,2622,1026,927,427,462,Tag0,unknown
1500041607509,0,102,2.2412109374999998E-5,50,100,63,16773647,7771,4646,2622,1026,927,427,462,Tag0,unknown
1500041607509,0,51,1.1206054687499999E-5,50,100,63,16773647,7771,4646,2622,1026,927,427,462,Tag0,unknown
1500041607510,0,17,3.7353515625000003E-6,50,100,63,16773647,7771,4646,2622,1026,927,427,462,Tag0,unknown
1500041607510,0,35,7.6904296875E-6,50,100,63,16773647,7771,4646,2622,1026,927,427,462,Tag0,unknown
1500041607511,0,69,1.51611328125E-5,50,100,63,16773647,7771,4646,2622,1026,927,427,462,Tag0,unknown
1500041607511,0,72,1.58203125E-5,50,100,63,16773647,7771,4646,2622,1026,927,427,462,Tag0,unknown
1500041607512,0,36,7.91015625E-6,50,100,63,16773647,7771,4646,2622,1026,927,427,462,Tag0,unknown
1500041607512,0,11,2.4169921875E-6,50,100,63,16773647,7771,4646,2622,1026,927,427,462,Tag0,unknown
1500041607513,0,25,5.4931640625E-6,50,100,63,16773647,7771,4646,2622,1026,927,427,462,Tag0,unknown
1500041607514,0,57,1.2524414062500001E-5,50,100,63,16773647,7771,4646,2622,1026,927,427,462,Tag0,unknown
1500041607525,0,64,1.40625E-5,50,100,63,16773647,7771,4646,2622,1026,927,427,462,Tag0,unknown
1500041607535,0,26,5.712890625E-6,50,100,63,16773647,7771,4646,2622,1026,927,427,462,Tag0,unknown
1500041607536,0,11,2.4169921875E-6,50,100,63,16773647,7771,4646,2622,1026,927,427,462,Tag0,unknown
1500041607537,0,49,1.07666015625E-5,50,100,63,16773647,7771,4646,2622,1026,927,427,462,Tag0,unknown
1500041607537,0,85,1.86767578125E-5,50,100,63,16773647,7771,4646,2622,1026,927,427,462,Tag0,unknown
1500041607538,0,91,1.99951171875E-5,50,100,63,16773647,7771,4646,2622,1026,927,427,462,Tag0,unknown
1500041607539,0,52,1.142578125E-5,50,100,63,16773647,7771,4646,2622,1026,927,427,462,Tag0,unknown
1500041607539,0,8,1.7578125E-6,50,100,63,16773647,7771,4646,2622,1026,927,427,462,Tag0,unknown
1500041607540,0,19,4.1748046875E-6,50,100,63,16773647,7771,4646,2622,1026,927,427,462,Tag0,unknown
1500041607541,0,69,1.51611328125E-5,50,100,63,16773647,7771,4646,2622,1026,927,427,462,Tag0,unknown
1500041607541,0,99,2.1752929687500003E-5,50,100,63,16773647,7771,4646,2622,1026,927,427,462,Tag0,unknown
1500041607542,0,65,1.42822265625E-5,50,100,63,16773647,7771,4646,2622,1026,927,427,462,Tag0,unknown
1500041607543,0,17,3.7353515625000003E-6,50,100,63,16773647,7771,4646,2622,1026,927,427,462,Tag0,unknown
1500041607543,0,22,4.833984375E-6,50,100,63,16773647,7771,4646,2622,1026,927,427,462,Tag0,unknown
1500041607544,0,65,1.42822265625E-5,50,100,63,16773647,7771,4646,2622,1026,927,427,462,Tag0,unknown
1500041607544,0,105,2.30712890625E-5,50,100,63,16773647,7771,4646,2622,1026,927,427,462,Tag0,unknown
1500041607545,0,84,1.8457031250000004E-5,50,100,63,16773647,7771,4646,2622,1026,927,427,462,Tag0,unknown
1500041607545,0,-257,-5.64697265625E-5,50,100,63,16773647,7771,4646,2622,1026,927,427,462,Tag0,unknown
1500041607545,0,-317,-6.96533203125E-5,50,100,63,16773647,7771,4646,2622,1026,927,427,462,Tag0,unknown
1500041607546,0,-305,-6.70166015625E-5,50,100,63,16773647,7771,4646,2622,1026,927,427,462,Tag0,unknown
1500041607563,0,8,1.7578125E-6,50,100,63,16773647,7771,4646,2622,1026,927,427,462,Tag0,unknown
1500041607569,0,34,7.4707031250000005E-6,50,100,63,16773647,7771,4646,2622,1026,927,427,462,Tag0,unknown
1500041607570,0,8,1.7578125E-6,50,100,63,16773647,7771,4646,2622,1026,927,427,462,Tag0,unknown
1500041607571,0,1,2.197265625E-7,50,100,63,16773647,7771,4646,2622,1026,927,427,462,Tag0,unknown
1500041607571,0,24,5.2734375E-6,50,100,63,16773647,7771,4646,2622,1026,927,427,462,Tag0,unknown
1500041607572,0,58,1.2744140625E-5,50,100,63,16773647,7771,4646,2622,1026,927,427,462,Tag0,unknown
1500041607573,0,52,1.142578125E-5,50,100,63,16773647,7771,4646,2622,1026,927,427,462,Tag0,unknown
1500041607574,0,1,2.197265625E-7,50,100,63,16773647,7771,4646,2622,1026,927,427,462,Tag0,unknown
1500041607574,0,-295,-6.48193359375E-5,50,100,63,16773647,7771,4646,2622,1026,927,427,462,Tag0,unknown
1500041607575,0,-289,-6.35009765625E-5,50,100,63,16773647,7771,4646,2622,1026,927,427,462,Tag0,unknown
1500041607576,0,4,8.7890625E-7,50,100,63,16773647,7771,4646,2622,1026,927,427,462,Tag0,unknown
1500041607576,0,18,3.955078125E-6,50,100,63,16773647,7771,4646,2622,1026,927,427,462,Tag0,unknown
1500041607577,0,-268,-5.8886718750000006E-5,50,100,63,16773647,7771,4646,2622,1026,927,427,462,Tag0,unknown
1500041607578,0,-291,-6.39404296875E-5,50,100,63,16773647,7771,4646,2622,1026,927,427,462,Tag0,unknown
1500041607578,0,-262,-5.7568359375E-5,50,100,63,16773647,7771,4646,2622,1026,927,427,462,Tag0,unknown
1500041607579,0,40,8.7890625E-6,50,100,63,16773647,7771,4646,2622,1026,927,427,462,Tag0,unknown
1500041607579,0,86,1.8896484375000003E-5,50,100,63,16773647,7771,4646,2622,1026,927,427,462,Tag0,unknown
1500041607580,0,90,1.9775390625E-5,50,100,63,16773647,7771,4646,2622,1026,927,427,462,Tag0,unknown
1500041607580,0,75,1.64794921875E-5,50,100,63,16773647,7771,4646,2622,1026,927,427,462,Tag0,unknown
1500041607581,0,84,1.8457031250000004E-5,50,100,63,16773647,7771,4646,2622,1026,927,427,462,Tag0,unknown
1500041607600,0,120,2.63671875E-5,50,100,63,16773647,7771,4646,2622,1026,927,427,462,Tag0,unknown
1500041607619,0,120,2.63671875E-5,50,100,63,16773647,7771,4646,2622,1026,927,427,462,Tag0,unknown
1500041607620,0,60,1.318359375E-5,50,100,63,16773647,7771,4646,2622,1026,927,427,462,Tag0,unknown
1500041607621,0,0,0.0,50,100,63,16773647,7771,4646,2622,1026,927,427,462,Tag0,unknown
1500041607622,0,-266,-5.8447265625E-5,50,100,63,16773647,7771,4646,2622,1026,927,427,462,Tag0,unknown
1500041607623,0,18,3.955078125E-6,50,100,63,16773647,7771,4646,2622,1026,927,427,462,Tag0,unknown
1500041607624,0,54,1.1865234375000001E-5,50,100,63,16773647,7771,4646,2622,1026,927,427,462,Tag0,unknown
1500041607625,0,37,8.1298828125E-6,50,100,63,16773647,7771,4646,2622,1026,927,427,462,Tag0,unknown
1500041607626,0,-265,-5.82275390625E-5,50,100,63,16773647,7771,4646,2622,1026,927,427,462,Tag0,unknown
1500041607627,0,-282,-6.1962890625E-5,50,100,63,16773647,7771,4646,2622,1026,927,427,462,Tag0,unknown
1500041607628,0,1,2.197265625E-7,50,100,63,16773647,7771,4646,2622,1026,927,427,462,Tag0,unknown
1500041607629,0,38,8.349609375E-6,50,100,63,16773647,7771,4646,2622,1026,927,427,462,Tag0,unknown
1500041607629,0,36,7.91015625E-6,50,100,63,16773647,7771,4646,2622,1026,927,427,462,Tag0,unknown
1500041607630,0,7,1.5380859375E-6,50,100,63,16773647,7771,4646,2622,1026,927,427,462,Tag0,unknown
1500041607631,0,5,1.0986328125E-6,50,100,63,16773647,7771,4646,2622,1026,927,427,462,Tag0,unknown
1500041607632,0,28,6.15234375E-6,50,100,63,16773647,7771,4646,2622,1026,927,427,462,Tag0,unknown
1500041607633,0,57,1.2524414062500001E-5,50,100,63,16773647,7771,4646,2622,1026,927,427,462,Tag0,unknown
1500041607634,0,53,1.1645507812500002E-5,50,100,63,16773647,7771,4646,2622,1026,927,427,462,Tag0,unknown
1500041607635,0,4,8.7890625E-7,50,100,63,16773647,7771,4646,2622,1026,927,427,462,Tag0,unknown
1500041607635,0,-283,-6.218261718750001E-5,50,100,63,16773647,7771,4646,2622,1026,927,427,462,Tag0,unknown
1500041607640,0,2,4.39453125E-7,50,100,63,16773647,7771,4646,2622,1026,927,427,462,Tag0,unknown
1500041607653,0,49,1.07666015625E-5,50,100,63,16773647,7771,4646,2622,1026,927,427,462,Tag0,unknown
1500041607654,0,49,1.07666015625E-5,50,100,63,16773647,7771,4646,2622,1026,927,427,462,Tag0,unknown
1500041607655,0,0,0.0,50,100,63,16773647,7771,4646,2622,1026,927,427,462,Tag0,unknown
1500041607655,0,-285,-6.26220703125E-5,50,100,63,16773647,7771,4646,2622,1026,927,427,462,Tag0,unknown
1500041607656,0,-267,-5.86669921875E-5,50,100,63,16773647,7771,4646,2622,1026,927,427,462,Tag0,unknown
1500041607657,0,21,4.614257812500001E-6,50,100,63,16773647,7771,4646,2622,1026,927,427,462,Tag0,unknown
1500041607657,0,29,6.3720703125E-6,50,100,63,16773647,7771,4646,2622,1026,927,427,462,Tag0,unknown
1500041607658,0,4,8.7890625E-7,50,100,63,16773647,7771,4646,2622,1026,927,427,462,Tag0,unknown
1500041607659,0,-261,-5.73486328125E-5,50,100,63,16773647,7771,4646,2622,1026,927,427,462,Tag0,unknown
1500041607659,0,33,7.2509765625E-6,50,100,63,16773647,7771,4646,2622,1026,927,427,462,Tag0,unknown
1500041607660,0,80,1.7578125E-5,50,100,63,16773647,7771,4646,2622,1026,927,427,462,Tag0,unknown
1500041607660,0,90,1.9775390625E-5,50,100,63,16773647,7771,4646,2622,1026,927,427,462,Tag0,unknown
1500041607661,0,56,1.23046875E-5,50,100,63,16773647,7771,4646,2622,1026,927,427,462,Tag0,unknown
1500041607661,0,22,4.833984375E-6,50,100,63,16773647,7771,4646,2622,1026,927,427,462,Tag0,unknown
1500041607662,0,33,7.2509765625E-6,50,100,63,16773647,7771,4646,2622,1026,927,427,462,Tag0,unknown
1500041607662,0,82,1.8017578124999998E-5,50,100,63,16773647,7771,4646,2622,1026,927,427,462,Tag0,unknown
1500041607663,0,121,2.6586914062500003E-5,50,100,63,16773647,7771,4646,2622,1026,927,427,462,Tag0,unknown
1500041607664,0,108,2.3730468750000002E-5,50,100,63,16773647,7771,4646,2622,1026,927,427,462,Tag0,unknown
1500041607664,0,80,1.7578125E-5,50,100,63,16773647,7771,4646,2622,1026,927,427,462,Tag0,unknown
1500041607680,0,85,1.86767578125E-5,50,100,63,16773647,7771,4646,2622,1026,927,427,462,Tag0,unknown
1500041607687,0,112,2.4609375E-5,50,100,63,16773647,7771,4646,2622,1026,927,427,462,Tag0,unknown
1500041607687,0,113,2.48291015625E-5,50,100,63,16773647,7771,4646,2622,1026,927,427,462,Tag0,unknown
1500041607688,0,84,1.8457031250000004E-5,50,100,63,16773647,7771,4646,2622,1026,927,427,462,Tag0,unknown
1500041607689,0,60,1.318359375E-5,50,100,63,16773647,7771,4646,2622,1026,927,427,462,Tag0,unknown
1500041607689,0,80,1.7578125E-5,50,100,63,16773647,7771,4646,2622,1026,927,427,462,Tag0,unknown
1500041607690,0,125,2.74658203125E-5,50,100,63,16773647,7771,4646,2622,1026,927,427,462,Tag0,unknown
1500041607691,0,-92,-2.021484375E-5,50,100,63,16773647,7771,4646,2622,1026,927,427,462,Tag0,unknown
1500041607691,0,-96,-2.109375E-5,50,100,63,16773647,7771,4646,2622,1026,927,427,462,Tag0,unknown
1500041607692,0,112,2.4609375E-5,50,100,63,16773647,7771,4646,2622,1026,927,427,462,Tag0,unknown
1500041607693,0,85,1.86767578125E-5,50,100,63,16773647,7771,4646,2622,1026,927,427,462,Tag0,unknown
1500041607693,0,119,2.6147460937500004E-5,50,100,63,16773647,7771,4646,2622,1026,927,427,462,Tag0,unknown
1500041607694,0,-96,-2.109375E-5,50,100,63,16773647,7771,4646,2622,1026,927,427,462,Tag0,unknown
1500041607695,0,-122,-2.6806640625E-5,50,100,63,16773647,7771,4646,2622,1026,927,427,462,Tag0,unknown
1500041607695,0,71,1.56005859375E-5,50,100,63,16773647,7771,4646,2622,1026,927,427,462,Tag0,unknown
1500041607696,0,52,1.142578125E-5,50,100,63,16773647,7771,4646,2622,1026,927,427,462,Tag0,unknown
1500041607696,0,76,1.669921875E-5,50,100,63,16773647,7771,4646,2622,1026,927,427,462,Tag0,unknown
1500041607703,0,104,2.28515625E-5,50,100,63,16773647,7771,4646,2622,1026,927,427,462,Tag0,unknown
1500041607704,0,91,1.99951171875E-5,50,100,63,16773647,7771,4646,2622,1026,927,427,462,Tag0,unknown
1500041607705,0,35,7.6904296875E-6,50,100,63,16773647,7771,4646,2622,1026,927,427,462,Tag0,unknown
1500041607722,0,13,2.8564453125E-6,50,100,63,16773647,7771,4646,2622,1026,927,427,462,Tag0,unknown
1500041607723,0,49,1.07666015625E-5,50,100,63,16773647,7771,4646,2622,1026,927,427,462,Tag0,unknown
1500041607723,0,92,2.021484375E-5,50,100,63,16773647,7771,4646,2622,1026,927,427,462,Tag0,unknown
1500041607724,0,103,2.26318359375E-5,50,100,63,16773647,7771,4646,2622,1026,927,427,462,Tag0,unknown
1500041607726,0,60,1.318359375E-5,50,100,63,16773647,7771,4646,2622,1026,927,427,462,Tag0,unknown
1500041607727,0,28,6.15234375E-6,50,100,63,16773647,7771,4646,2622,1026,927,427,462,Tag0,unknown
1500041607728,0,48,1.0546875E-5,50,100,63,16773647,7771,4646,2622,1026,927,427,462,Tag0,unknown
1500041607728,0,87,1.91162109375E-5,50,100,63,16773647,7771,4646,2622,1026,927,427,462,Tag0,unknown
1500041607729,0,104,2.28515625E-5,50,100,63,16773647,7771,4646,2622,1026,927,427,462,Tag0,unknown
1500041607730,0,52,1.142578125E-5,50,100,63,16773647,7771,4646,2622,1026,927,427,462,Tag0,unknown
1500041607731,0,-268,-5.8886718750000006E-5,50,100,63,16773647,7771,4646,2622,1026,927,427,462,Tag0,unknown
1500041607738,0,-261,-5.73486328125E-5,50,100,63,16773647,7771,4646,2622,1026,927,427,462,Tag0,unknown
1500041607738,0,51,1.1206054687499999E-5,50,100,63,16773647,7771,4646,2622,1026,927,427,462,Tag0,unknown
1500041607739,0,72,1.58203125E-5,50,100,63,16773647,7771,4646,2622,1026,927,427,462,Tag0,unknown
1500041607740,0,44,9.66796875E-6,50,100,63,16773647,7771,4646,2622,1026,927,427,462,Tag0,unknown
1500041607740,0,11,2.4169921875E-6,50,100,63,16773647,7771,4646,2622,1026,927,427,462,Tag0,unknown
1500041607741,0,21,4.614257812500001E-6,50,100,63,16773647,7771,4646,2622,1026,927,427,462,Tag0,unknown
1500041607742,0,57,1.2524414062500001E-5,50,100,63,16773647,7771,4646,2622,1026,927,427,462,Tag0,unknown
1500041607743,0,76,1.669921875E-5,50,100,63,16773647,7771,4646,2622,1026,927,427,462,Tag0,unknown
1500041607744,0,50,1.0986328125E-5,50,100,63,16773647,7771,4646,2622,1026,927,427,462,Tag0,unknown
1500041607756,0,9,1.9775390625E-6,50,100,63,16773647,7771,4646,2622,1026,927,427,462,Tag0,unknown
1500041607770,0,5,1.0986328125E-6,50,100,63,16773647,7771,4646,2622,1026,927,427,462,Tag0,unknown
1500041607771,0,39,8.5693359375E-6,50,100,63,16773647,7771,4646,2622,1026,927,427,462,Tag0,unknown
1500041607772,0,76,1.669921875E-5,50,100,63,16773647,7771,4646,2622,1026,927,427,462,Tag0,unknown
1500041607773,0,76,1.669921875E-5,50,100,63,16773647,7771,4646,2622,1026,927,427,462,Tag0,unknown
1500041607774,0,51,1.1206054687499999E-5,50,100,63,16773647,7771,4646,2622,1026,927,427,462,Tag0,unknown
1500041607774,0,60,1.318359375E-5,50,100,63,16773647,7771,4646,2622,1026,927,427,462,Tag0,unknown
1500041607776,0,116,2.548828125E-5,40,100,63,228359,25551,6780,9505,5404,2369,1581,922,Tag0,unknown
1500041607776,0,-99,-2.1752929687500003E-5,40,100,63,228359,25551,6780,9505,5404,2369,1581,922,Tag0,unknown
1500041607777,0,-110,-2.4169921875E-5,40,100,63,228359,25551,6780,9505,5404,2369,1581,922,Tag0,unknown
1500041607778,0,90,1.9775390625E-5,40,100,63,228359,25551,6780,9505,5404,2369,1581,922,Tag0,unknown
1500041607778,0,59,1.29638671875E-5,40,100,63,228359,25551,6780,9505,5404,2369,1581,922,Tag0,unknown
1500041607779,0,72,1.58203125E-5,40,100,63,228359,25551,6780,9505,5404,2369,1581,922,Tag0,unknown
1500041607779,0,97,2.13134765625E-5,40,100,63,228359,25551,6780,9505,5404,2369,1581,922,Tag0,unknown
1500041607780,0,82,1.8017578124999998E-5,40,100,63,228359,25551,6780,9505,5404,2369,1581,922,Tag0,unknown
1500041607791,0,28,6.15234375E-6,40,100,63,228359,25551,6780,9505,5404,2369,1581,922,Tag0,unknown
1500041607804,0,10,2.197265625E-6,40,100,63,228359,25551,6780,9505,5404,2369,1581,922,Tag0,unknown
1500041607804,0,37,8.1298828125E-6,40,100,63,228359,25551,6780,9505,5404,2369,1581,922,Tag0,unknown
1500041607805,0,67,1.4721679687500002E-5,40,100,63,228359,25551,6780,9505,5404,2369,1581,922,Tag0,unknown
1500041607805,0,65,1.42822265625E-5,40,100,63,228359,25551,6780,9505,5404,2369,1581,922,Tag0,unknown
1500041607806,0,19,4.1748046875E-6,40,100,63,228359,25551,6780,9505,5404,2369,1581,922,Tag0,unknown
1500041607806,0,-261,-5.73486328125E-5,40,100,63,228359,25551,6780,9505,5404,2369,1581,922,Tag0,unknown
1500041607807,0,12,2.63671875E-6,40,100,63,228359,25551,6780,9505,5404,2369,1581,922,Tag0,unknown
1500041607807,0,51,1.1206054687499999E-5,40,100,63,228359,25551,6780,9505,5404,2369,1581,922,Tag0,unknown
1500041607808,0,56,1.23046875E-5,40,100,63,228359,25551,6780,9505,5404,2369,1581,922,Tag0,unknown
1500041607809,0,26,5.712890625E-6,40,100,63,228359,25551,6780,9505,5404,2369,1581,922,Tag0,unknown
1500041607809,0,-264,-5.80078125E-5,40,100,63,228359,25551,6780,9505,5404,2369,1581,922,Tag0,unknown
1500041607810,0,-263,-5.7788085937500005E-5,40,100,63,228359,25551,6780,9505,5404,2369,1581,922,Tag0,unknown
1500041607810,0,32,7.03125E-6,40,100,63,228359,25551,6780,9505,5404,2369,1581,922,Tag0,unknown
1500041607810,0,83,1.82373046875E-5,40,100,63,228359,25551,6780,9505,5404,2369,1581,922,Tag0,unknown
1500041607811,0,97,2.13134765625E-5,40,100,63,228359,25551,6780,9505,5404,2369,1581,922,Tag0,unknown
1500041607811,0,83,1.82373046875E-5,40,100,63,228359,25551,6780,9505,5404,2369,1581,922,Tag0,unknown
1500041607811,0,82,1.8017578124999998E-5,40,100,63,228359,25551,6780,9505,5404,2369,1581,922,Tag0,unknown
1500041607812,0,100,2.197265625E-5,40,100,63,228359,25551,6780,9505,5404,2369,1581,922,Tag0,unknown
1500041607812,0,90,1.9775390625E-5,40,100,63,228359,25551,6780,9505,5404,2369,1581,922,Tag0,unknown
1500041607827,0,35,7.6904296875E-6,40,100,63,228359,25551,6780,9505,5404,2369,1581,922,Tag0,unknown
1500041607837,0,-269,-5.9106445312499996E-5,40,100,63,228359,25551,6780,9505,5404,2369,1581,922,Tag0,unknown
1500041607838,0,-265,-5.82275390625E-5,40,100,63,228359,25551,6780,9505,5404,2369,1581,922,Tag0,unknown
1500041607838,0,33,7.2509765625E-6,40,100,63,228359,25551,6780,9505,5404,2369,1581,922,Tag0,unknown
1500041607839,0,68,1.4941406250000001E-5,40,100,63,228359,25551,6780,9505,5404,2369,1581,922,Tag0,unknown
1500041607840,0,66,1.4501953125E-5,40,100,63,228359,25551,6780,9505,5404,2369,1581,922,Tag0,unknown
1500041607840,0,44,9.66796875E-6,40,100,63,228359,25551,6780,9505,5404,2369,1581,922,Tag0,unknown
1500041607841,0,42,9.228515625000002E-6,40,100,63,228359,25551,6780,9505,5404,2369,1581,922,Tag0,unknown
1500041607841,0,73,1.6040039062500002E-5,40,100,63,228359,25551,6780,9505,5404,2369,1581,922,Tag0,unknown
1500041607842,0,98,2.1533203125E-5,40,100,63,228359,25551,6780,9505,5404,2369,1581,922,Tag0,unknown
1500041607842,0,90,1.9775390625E-5,40,100,63,228359,25551,6780,9505,5404,2369,1581,922,Tag0,unknown
1500041607843,0,68,1.4941406250000001E-5,40,100,63,228359,25551,6780,9505,5404,2369,1581,922,Tag0,unknown
1500041607844,0,64,1.40625E-5,40,100,63,228359,25551,6780,9505,5404,2369,1581,922,Tag0,unknown
1500041607844,0,87,1.91162109375E-5,40,100,63,228359,25551,6780,9505,5404,2369,1581,922,Tag0,unknown
1500041607844,0,117,2.5708007812499998E-5,40,100,63,228359,25551,6780,9505,5404,2369,1581,922,Tag0,unknown
1500041607844,0,114,2.5048828125000003E-5,40,100,63,228359,25551,6780,9505,5404,2369,1581,922,Tag0,unknown
1500041607845,0,83,1.82373046875E-5,40,100,63,228359,25551,6780,9505,5404,2369,1581,922,Tag0,unknown
1500041607845,0,65,1.42822265625E-5,40,100,63,228359,25551,6780,9505,5404,2369,1581,922,Tag0,unknown
1500041607846,0,73,1.6040039062500002E-5,40,100,63,228359,25551,6780,9505,5404,2369,1581,922,Tag0,unknown
1500041607846,0,76,1.669921875E-5,40,100,63,228359,25551,6780,9505,5404,2369,1581,922,Tag0,unknown
1500041607865,0,50,1.0986328125E-5,40,100,63,228359,25551,6780,9505,5404,2369,1581,922,Tag0,unknown
1500041607871,0,18,3.955078125E-6,40,100,63,228359,25551,6780,9505,5404,2369,1581,922,Tag0,unknown
1500041607872,0,21,4.614257812500001E-6,40,100,63,228359,25551,6780,9505,5404,2369,1581,922,Tag0,unknown
1500041607873,0,55,1.20849609375E-5,40,100,63,228359,25551,6780,9505,5404,2369,1581,922,Tag0,unknown
1500041607873,0,100,2.197265625E-5,40,100,63,228359,25551,6780,9505,5404,2369,1581,922,Tag0,unknown
1500041607874,0,121,2.6586914062500003E-5,40,100,63,228359,25551,6780,9505,5404,2369,1581,922,Tag0,unknown
1500041607874,0,76,1.669921875E-5,40,100,63,228359,25551,6780,9505,5404,2369,1581,922,Tag0,unknown
1500041607875,0,20,4.39453125E-6,40,100,63,228359,25551,6780,9505,5404,2369,1581,922,Tag0,unknown
1500041607876,0,22,4.833984375E-6,40,100,63,228359,25551,6780,9505,5404,2369,1581,922,Tag0,unknown
1500041607876,0,58,1.2744140625E-5,40,100,63,228359,25551,6780,9505,5404,2369,1581,922,Tag0,unknown
1500041607877,0,60,1.318359375E-5,40,100,63,228359,25551,6780,9505,5404,2369,1581,922,Tag0,unknown
1500041607878,0,22,4.833984375E-6,40,100,63,228359,25551,6780,9505,5404,2369,1581,922,Tag0,unknown
1500041607878,0,-258,-5.6689453125000004E-5,40,100,63,228359,25551,6780,9505,5404,2369,1581,922,Tag0,unknown
1500041607879,0,16,3.515625E-6,40,100,63,228359,25551,6780,9505,5404,2369,1581,922,Tag0,unknown
1500041607879,0,40,8.7890625E-6,40,100,63,228359,25551,6780,9505,5404,2369,1581,922,Tag0,unknown
1500041607879,0,58,1.2744140625E-5,40,100,63,228359,25551,6780,9505,5404,2369,1581,922,Tag0,unknown
1500041607880,0,39,8.5693359375E-6,40,100,63,228359,25551,6780,9505,5404,2369,1581,922,Tag0,unknown
1500041607880,0,13,2.8564453125E-6,40,100,63,228359,25551,6780,9505,5404,2369,1581,922,Tag0,unknown
1500041607880,0,26,5.712890625E-6,40,100,63,228359,25551,6780,9505,5404,2369,1581,922,Tag0,unknown
1500041607881,0,71,1.56005859375E-5,40,100,63,228359,25551,6780,9505,5404,2369,1581,922,Tag0,unknown
1500041607903,0,97,2.13134765625E-5,40,100,63,228359,25551,6780,9505,5404,2369,1581,922,Tag0,unknown
1500041607921,0,80,1.7578125E-5,40,100,63,228359,25551,6780,9505,5404,2369,1581,922,Tag0,unknown
1500041607922,0,43,9.448242187500001E-6,40,100,63,228359,25551,6780,9505,5404,2369,1581,922,Tag0,unknown
1500041607923,0,43,9.448242187500001E-6,40,100,63,228359,25551,6780,9505,5404,2369,1581,922,Tag0,unknown
1500041607923,0,75,1.64794921875E-5,40,100,63,228359,25551,6780,9505,5404,2369,1581,922,Tag0,unknown
1500041607924,0,97,2.13134765625E-5,40,100,63,228359,25551,6780,9505,5404,2369,1581,922,Tag0,unknown
1500041607925,0,77,1.69189453125E-5,40,100,63,228359,25551,6780,9505,5404,2369,1581,922,Tag0,unknown
1500041607925,0,40,8.7890625E-6,40,100,63,228359,25551,6780,9505,5404,2369,1581,922,Tag0,unknown
1500041607926,0,38,8.349609375E-6,40,100,63,228359,25551,6780,9505,5404,2369,1581,922,Tag0,unknown
1500041607927,0,97,2.13134765625E-5,40,100,63,228359,25551,6780,9505,5404,2369,1581,922,Tag0,unknown
1500041607927,0,-101,-2.2192382812500002E-5,40,100,63,228359,25551,6780,9505,5404,2369,1581,922,Tag0,unknown
1500041607928,0,-96,-2.109375E-5,40,100,63,228359,25551,6780,9505,5404,2369,1581,922,Tag0,unknown
1500041607929,0,123,2.70263671875E-5,40,100,63,228359,25551,6780,9505,5404,2369,1581,922,Tag0,unknown
1500041607929,0,121,2.6586914062500003E-5,40,100,63,228359,25551,6780,9505,5404,2369,1581,922,Tag0,unknown
1500041607930,0,-108,-2.3730468750000002E-5,40,100,63,228359,25551,6780,9505,5404,2369,1581,922,Tag0,unknown
1500041607930,0,-94,-2.0654296875000002E-5,40,100,63,228359,25551,6780,9505,5404,2369,1581,922,Tag0,unknown
1500041607930,0,-112,-2.4609375E-5,40,100,63,228359,25551,6780,9505,5404,2369,1581,922,Tag0,unknown
1500041607931,0,102,2.2412109374999998E-5,40,100,63,228359,25551,6780,9505,5404,2369,1581,922,Tag0,unknown
1500041607931,0,74,1.6259765625E-5,40,100,63,228359,25551,6780,9505,5404,2369,1581,922,Tag0,unknown
1500041607932,0,82,1.8017578124999998E-5,40,100,63,228359,25551,6780,9505,5404,2369,1581,922,Tag0,unknown
1500041607943,0,105,2.30712890625E-5,40,100,63,228359,25551,6780,9505,5404,2369,1581,922,Tag0,unknown
1500041607956,0,108,2.3730468750000002E-5,40,100,63,228359,25551,6780,9505,5404,2369,1581,922,Tag0,unknown
1500041607957,0,81,1.77978515625E-5,40,100,63,228359,25551,6780,9505,5404,2369,1581,922,Tag0,unknown
1500041607957,0,65,1.42822265625E-5,40,100,63,228359,25551,6780,9505,5404,2369,1581,922,Tag0,unknown
1500041607958,0,93,2.04345703125E-5,40,100,63,228359,25551,6780,9505,5404,2369,1581,922,Tag0,unknown
1500041607959,0,-108,-2.3730468750000002E-5,40,100,63,228359,25551,6780,9505,5404,2369,1581,922,Tag0,unknown
1500041607959,0,-78,-1.7138671875E-5,40,100,63,228359,25551,6780,9505,5404,2369,1581,922,Tag0,unknown
1500041607960,0,-112,-2.4609375E-5,40,100,63,228359,25551,6780,9505,5404,2369,1581,922,Tag0,unknown
1500041607960,0,80,1.7578125E-5,40,100,63,228359,25551,6780,9505,5404,2369,1581,922,Tag0,unknown
1500041607961,0,50,1.0986328125E-5,40,100,63,228359,25551,6780,9505,5404,2369,1581,922,Tag0,unknown
1500041607962,0,64,1.40625E-5,40,100,63,228359,25551,6780,9505,5404,2369,1581,922,Tag0,unknown
1500041607963,0,75,1.64794921875E-5,40,100,63,228359,25551,6780,9505,5404,2369,1581,922,Tag0,unknown
1500041607963,0,54,1.1865234375000001E-5,40,100,63,228359,25551,6780,9505,5404,2369,1581,922,Tag0,unknown
1500041607964,0,20,4.39453125E-6,40,100,63,228359,25551,6780,9505,5404,2369,1581,922,Tag0,unknown
1500041607964,0,22,4.833984375E-6,40,100,63,228359,25551,6780,9505,5404,2369,1581,922,Tag0,unknown
1500041607964,0,52,1.142578125E-5,40,100,63,228359,25551,6780,9505,5404,2369,1581,922,Tag0,unknown
1500041607965,0,81,1.77978515625E-5,40,100,63,228359,25551,6780,9505,5404,2369,1581,922,Tag0,unknown
1500041607965,0,59,1.29638671875E-5,40,100,63,228359,25551,6780,9505,5404,2369,1581,922,Tag0,unknown
1500041607966,0,18,3.955078125E-6,40,100,63,228359,25551,6780,9505,5404,2369,1581,922,Tag0,unknown
1500041607967,0,7,1.5380859375E-6,40,100,63,228359,25551,6780,9505,5404,2369,1581,922,Tag0,unknown
1500041607980,0,50,1.0986328125E-5,40,100,63,228359,25551,6780,9505,5404,2369,1581,922,Tag0,unknown
1500041607989,0,90,1.9775390625E-5,40,100,63,228359,25551,6780,9505,5404,2369,1581,922,Tag0,unknown
1500041607990,0,73,1.6040039062500002E-5,40,100,63,228359,25551,6780,9505,5404,2369,1581,922,Tag0,unknown
1500041607990,0,17,3.7353515625000003E-6,40,100,63,228359,25551,6780,9505,5404,2369,1581,922,Tag0,unknown
1500041607991,0,7,1.5380859375E-6,40,100,63,228359,25551,6780,9505,5404,2369,1581,922,Tag0,unknown
1500041607992,0,35,7.6904296875E-6,40,100,63,228359,25551,6780,9505,5404,2369,1581,922,Tag0,unknown
1500041607993,0,59,1.29638671875E-5,40,100,63,228359,25551,6780,9505,5404,2369,1581,922,Tag0,unknown
1500041607994,0,55,1.20849609375E-5,40,100,63,228359,25551,6780,9505,5404,2369,1581,922,Tag0,unknown
1500041607994,0,17,3.7353515625000003E-6,40,100,63,228359,25551,6780,9505,5404,2369,1581,922,Tag0,unknown
1500041607995,0,-263,-5.7788085937500005E-5,40,100,63,228359,25551,6780,9505,5404,2369,1581,922,Tag0,unknown
1500041607995,0,17,3.7353515625000003E-6,40,100,63,228359,25551,6780,9505,5404,2369,1581,922,Tag0,unknown
1500041607996,0,56,1.23046875E-5,40,100,63,228359,25551,6780,9505,5404,2369,1581,922,Tag0,unknown
1500041607997,0,45,9.8876953125E-6,40,100,63,228359,25551,6780,9505,5404,2369,1581,922,Tag0,unknown
1500041607997,0,-262,-5.7568359375E-5,40,100,63,228359,25551,6780,9505,5404,2369,1581,922,Tag0,unknown
1500041607997,0,-281,-6.17431640625E-5,40,100,63,228359,25551,6780,9505,5404,2369,1581,922,Tag0,unknown
1500041607998,0,0,0.0,40,100,63,228359,25551,6780,9505,5404,2369,1581,922,Tag0,unknown
1500041607998,0,40,8.7890625E-6,40,100,63,228359,25551,6780,9505,5404,2369,1581,922,Tag0,unknown
1500041607999,0,73,1.6040039062500002E-5,40,100,63,228359,25551,6780,9505,5404,2369,1581,922,Tag0,unknown
1500041607999,0,53,1.1645507812500002E-5,40,100,63,228359,25551,6780,9505,5404,2369,1581,922,Tag0,unknown
1500041607999,0,21,4.614257812500001E-6,40,100,63,228359,25551,6780,9505,5404,2369,1581,922,Tag0,unknown
1500041608020,0,35,7.6904296875E-6,40,100,63,228359,25551,6780,9505,5404,2369,1581,922,Tag0,unknown
1500041608039,0,83,1.82373046875E-5,40,100,63,228359,25551,6780,9505,5404,2369,1581,922,Tag0,unknown
1500041608039,0,98,2.1533203125E-5,40,100,63,228359,25551,6780,9505,5404,2369,1581,922,Tag0,unknown
1500041608040,0,67,1.4721679687500002E-5,40,100,63,228359,25551,6780,9505,5404,2369,1581,922,Tag0,unknown
1500041608041,0,26,5.712890625E-6,40,100,63,228359,25551,6780,9505,5404,2369,1581,922,Tag0,unknown
1500041608041,0,11,2.4169921875E-6,40,100,63,228359,25551,6780,9505,5404,2369,1581,922,Tag0,unknown
1500041608042,0,21,4.614257812500001E-6,40,100,63,228359,25551,6780,9505,5404,2369,1581,922,Tag0,unknown
1500041608043,0,24,5.2734375E-6,40,100,63,228359,25551,6780,9505,5404,2369,1581,922,Tag0,unknown
1500041608043,0,-276,-6.064453125E-5,40,100,63,228359,25551,6780,9505,5404,2369,1581,922,Tag0,unknown
1500041608044,0,-322,-7.0751953125E-5,40,100,63,228359,25551,6780,9505,5404,2369,1581,922,Tag0,unknown
1500041608056,0,-293,-6.43798828125E-5,40,100,63,228359,25551,6780,9505,5404,2369,1581,922,Tag0,unknown
1500041608057,0,34,7.4707031250000005E-6,40,100,63,228359,25551,6780,9505,5404,2369,1581,922,Tag0,unknown
1500041608057,0,76,1.669921875E-5,40,100,63,228359,25551,6780,9505,5404,2369,1581,922,Tag0,unknown
1500041608058,0,72,1.58203125E-5,40,100,63,228359,25551,6780,9505,5404,2369,1581,922,Tag0,unknown
1500041608059,0,58,1.2744140625E-5,40,100,63,228359,25551,6780,9505,5404,2369,1581,922,Tag0,unknown
1500041608059,0,71,1.56005859375E-5,40,100,63,228359,25551,6780,9505,5404,2369,1581,922,Tag0,unknown
1500041608060,0,90,1.9775390625E-5,40,100,63,228359,25551,6780,9505,5404,2369,1581,922,Tag0,unknown
1500041608060,0,102,2.2412109374999998E-5,40,100,63,228359,25551,6780,9505,5404,2369,1581,922,Tag0,unknown
1500041608074,0,76,1.669921875E-5,40,100,63,228359,25551,6780,9505,5404,2369,1581,922,Tag0,unknown
1500041608075,0,28,6.15234375E-6,40,100,63,228359,25551,6780,9505,5404,2369,1581,922,Tag0,unknown
1500041608075,0,17,3.7353515625000003E-6,40,100,63,228359,25551,6780,9505,5404,2369,1581,922,Tag0,unknown
1500041608076,0,37,8.1298828125E-6,40,100,63,228359,25551,6780,9505,5404,2369,1581,922,Tag0,unknown
1500041608077,0,51,1.1206054687499999E-5,40,100,63,228359,25551,6780,9505,5404,2369,1581,922,Tag0,unknown
1500041608078,0,34,7.4707031250000005E-6,40,100,63,228359,25551,6780,9505,5404,2369,1581,922,Tag0,unknown
1500041608079,0,-257,-5.64697265625E-5,40,100,63,228359,25551,6780,9505,5404,2369,1581,922,Tag0,unknown
1500041608080,0,-257,-5.64697265625E-5,40,100,63,228359,25551,6780,9505,5404,2369,1581,922,Tag0,unknown
1500041608080,0,43,9.448242187500001E-6,40,100,63,228359,25551,6780,9505,5404,2369,1581,922,Tag0,unknown
1500041608081,0,97,2.13134765625E-5,40,100,63,228359,25551,6780,9505,5404,2369,1581,922,Tag0,unknown
1500041608082,0,99,2.1752929687500003E-5,40,100,63,228359,25551,6780,9505,5404,2369,1581,922,Tag0,unknown
1500041608083,0,37,8.1298828125E-6,40,100,63,228359,25551,6780,9505,5404,2369,1581,922,Tag0,unknown
1500041608091,0,-264,-5.80078125E-5,40,100,63,228359,25551,6780,9505,5404,2369,1581,922,Tag0,unknown
1500041608092,0,-258,-5.6689453125000004E-5,40,100,63,228359,25551,6780,9505,5404,2369,1581,922,Tag0,unknown
1500041608093,0,39,8.5693359375E-6,40,100,63,228359,25551,6780,9505,5404,2369,1581,922,Tag0,unknown
1500041608094,0,57,1.2524414062500001E-5,40,100,63,228359,25551,6780,9505,5404,2369,1581,922,Tag0,unknown
1500041608107,0,27,5.9326171875000005E-6,40,100,63,228359,25551,6780,9505,5404,2369,1581,922,Tag0,unknown
1500041608108,0,2,4.39453125E-7,40,100,63,228359,25551,6780,9505,5404,2369,1581,922,Tag0,unknown
1500041608109,0,12,2.63671875E-6,40,100,63,228359,25551,6780,9505,5404,2369,1581,922,Tag0,unknown
1500041608109,0,41,9.008789062499999E-6,40,100,63,228359,25551,6780,9505,5404,2369,1581,922,Tag0,unknown
1500041608110,0,56,1.23046875E-5,40,100,63,228359,25551,6780,9505,5404,2369,1581,922,Tag0,unknown
1500041608111,0,22,4.833984375E-6,40,100,63,228359,25551,6780,9505,5404,2369,1581,922,Tag0,unknown
1500041608111,0,-269,-5.9106445312499996E-5,40,100,63,228359,25551,6780,9505,5404,2369,1581,922,Tag0,unknown
1500041608112,0,5,1.0986328125E-6,40,100,63,228359,25551,6780,9505,5404,2369,1581,922,Tag0,unknown
1500041608113,0,65,1.42822265625E-5,40,100,63,228359,25551,6780,9505,5404,2369,1581,922,Tag0,unknown
1500041608114,0,81,1.77978515625E-5,40,100,63,228359,25551,6780,9505,5404,2369,1581,922,Tag0,unknown
1500041608114,0,18,3.955078125E-6,40,100,63,228359,25551,6780,9505,5404,2369,1581,922,Tag0,unknown
1500041608115,0,-292,-6.416015625000001E-5,40,100,63,228359,25551,6780,9505,5404,2369,1581,922,Tag0,unknown
1500041608115,0,-269,-5.9106445312499996E-5,40,100,63,228359,25551,6780,9505,5404,2369,1581,922,Tag0,unknown
1500041608116,0,64,1.40625E-5,40,100,63,228359,25551,6780,9505,5404,2369,1581,922,Tag0,unknown
1500041608116,0,-118,-2.5927734375E-5,40,100,63,228359,25551,6780,9505,5404,2369,1581,922,Tag0,unknown
1500041608117,0,-109,-2.39501953125E-5,40,100,63,228359,25551,6780,9505,5404,2369,1581,922,Tag0,unknown
1500041608127,0,112,2.4609375E-5,40,100,63,228359,25551,6780,9505,5404,2369,1581,922,Tag0,unknown
1500041608141,0,102,2.2412109374999998E-5,40,100,63,228359,25551,6780,9505,5404,2369,1581,922,Tag0,unknown
1500041608142,0,-119,-2.6147460937500004E-5,40,100,63,228359,25551,6780,9505,5404,2369,1581,922,Tag0,unknown
1500041608142,0,-93,-2.04345703125E-5,40,100,63,228359,25551,6780,9505,5404,2369,1581,922,Tag0,unknown
1500041608143,0,-106,-2.3291015625000003E-5,40,100,63,228359,25551,6780,9505,5404,2369,1581,922,Tag0,unknown
1500041608144,0,113,2.48291015625E-5,40,100,63,228359,25551,6780,9505,5404,2369,1581,922,Tag0,unknown
1500041608145,0,87,1.91162109375E-5,40,100,63,228359,25551,6780,9505,5404,2369,1581,922,Tag0,unknown
1500041608145,0,97,2.13134765625E-5,40,100,63,228359,25551,6780,9505,5404,2369,1581,922,Tag0,unknown
1500041608146,0,-124,-2.724609375E-5,40,100,63,228359,25551,6780,9505,5404,2369,1581,922,Tag0,unknown
1500041608147,0,-116,-2.548828125E-5,40,100,63,228359,25551,6780,9505,5404,2369,1581,922,Tag0,unknown
1500041608147,0,103,2.26318359375E-5,40,100,63,228359,25551,6780,9505,5404,2369,1581,922,Tag0,unknown
1500041608148,0,82,1.8017578124999998E-5,40,100,63,228359,25551,6780,9505,5404,2369,1581,922,Tag0,unknown
1500041608149,0,106,2.3291015625000003E-5,40,100,63,228359,25551,6780,9505,5404,2369,1581,922,Tag0,unknown
1500041608149,0,-124,-2.724609375E-5,40,100,63,228359,25551,6780,9505,5404,2369,1581,922,Tag0,unknown
1500041608150,0,108,2.3730468750000002E-5,40,100,63,228359,25551,6780,9505,5404,2369,1581,922,Tag0,unknown
1500041608150,0,55,1.20849609375E-5,40,100,63,228359,25551,6780,9505,5404,2369,1581,922,Tag0,unknown
1500041608151,0,59,1.29638671875E-5,40,100,63,228359,25551,6780,9505,5404,2369,1581,922,Tag0,unknown
1500041608151,0,123,2.70263671875E-5,40,100,63,228359,25551,6780,9505,5404,2369,1581,922,Tag0,unknown
1500041608152,0,-73,-1.6040039062500002E-5,40,100,63,228359,25551,6780,9505,5404,2369,1581,922,Tag0,unknown
1500041608153,0,-69,-1.51611328125E-5,40,100,63,228359,25551,6780,9505,5404,2369,1581,922,Tag0,unknown
1500041608164,0,116,2.548828125E-5,40,100,63,228359,25551,6780,9505,5404,2369,1581,922,Tag0,unknown
1500041608175,0,44,9.66796875E-6,40,100,63,228359,25551,6780,9505,5404,2369,1581,922,Tag0,unknown
1500041608175,0,50,1.0986328125E-5,40,100,63,228359,25551,6780,9505,5404,2369,1581,922,Tag0,unknown
1500041608176,0,99,2.1752929687500003E-5,40,100,63,228359,25551,6780,9505,5404,2369,1581,922,Tag0,unknown
1500041608177,0,-128,-2.8125E-5,40,100,63,228359,25551,6780,9505,5404,2369,1581,922,Tag0,unknown
1500041608178,0,103,2.26318359375E-5,40,100,63,228359,25551,6780,9505,5404,2369,1581,922,Tag0,unknown
1500041608178,0,67,1.4721679687500002E-5,40,100,63,228359,25551,6780,9505,5404,2369,1581,922,Tag0,unknown
1500041608179,0,60,1.318359375E-5,40,100,63,228359,25551,6780,9505,5404,2369,1581,922,Tag0,unknown
1500041608180,0,87,1.91162109375E-5,40,100,63,228359,25551,6780,9505,5404,2369,1581,922,Tag0,unknown
1500041608181,0,107,2.35107421875E-5,40,100,63,228359,25551,6780,9505,5404,2369,1581,922,Tag0,unknown
1500041608181,0,93,2.04345703125E-5,40,100,63,228359,25551,6780,9505,5404,2369,1581,922,Tag0,unknown
1500041608182,0,81,1.77978515625E-5,40,100,63,228359,25551,6780,9505,5404,2369,1581,922,Tag0,unknown
1500041608183,0,101,2.2192382812500002E-5,40,100,63,228359,25551,6780,9505,5404,2369,1581,922,Tag0,unknown
1500041608183,0,-118,-2.5927734375E-5,40,100,63,228359,25551,6780,9505,5404,2369,1581,922,Tag0,unknown
1500041608184,0,-105,-2.30712890625E-5,40,100,63,228359,25551,6780,9505,5404,2369,1581,922,Tag0,unknown
1500041608184,0,123,2.70263671875E-5,40,100,63,228359,25551,6780,9505,5404,2369,1581,922,Tag0,unknown
1500041608185,0,99,2.1752929687500003E-5,40,100,63,228359,25551,6780,9505,5404,2369,1581,922,Tag0,unknown
1500041608185,0,117,2.5708007812499998E-5,40,100,63,228359,25551,6780,9505,5404,2369,1581,922,Tag0,unknown
1500041608185,0,-94,-2.0654296875000002E-5,40,100,63,228359,25551,6780,9505,5404,2369,1581,922,Tag0,unknown
1500041608186,0,-54,-1.1865234375000001E-5,40,100,63,228359,25551,6780,9505,5404,2369,1581,922,Tag0,unknown
1500041608200,0,-48,-1.0546875E-5,40,100,63,228359,25551,6780,9505,5404,2369,1581,922,Tag0,unknown
1500041608207,0,-91,-1.99951171875E-5,40,100,63,228359,25551,6780,9505,5404,2369,1581,922,Tag0,unknown
1500041608208,0,-123,-2.70263671875E-5,40,100,63,228359,25551,6780,9505,5404,2369,1581,922,Tag0,unknown
1500041608209,0,-112,-2.4609375E-5,40,100,63,228359,25551,6780,9505,5404,2369,1581,922,Tag0,unknown
1500041608209,0,-88,-1.93359375E-5,40,100,63,228359,25551,6780,9505,5404,2369,1581,922,Tag0,unknown
1500041608210,0,-95,-2.08740234375E-5,40,100,63,228359,25551,6780,9505,5404,2369,1581,922,Tag0,unknown
1500041608210,0,107,2.35107421875E-5,40,100,63,228359,25551,6780,9505,5404,2369,1581,922,Tag0,unknown
1500041608211,0,72,1.58203125E-5,40,100,63,228359,25551,6780,9505,5404,2369,1581,922,Tag0,unknown
1500041608211,0,75,1.64794921875E-5,40,100,63,228359,25551,6780,9505,5404,2369,1581,922,Tag0,unknown
1500041608212,0,97,2.13134765625E-5,40,100,63,228359,25551,6780,9505,5404,2369,1581,922,Tag0,unknown
1500041608213,0,99,2.1752929687500003E-5,40,100,63,228359,25551,6780,9505,5404,2369,1581,922,Tag0,unknown
1500041608213,0,64,1.40625E-5,40,100,63,228359,25551,6780,9505,5404,2369,1581,922,Tag0,unknown
1500041608214,0,55,1.20849609375E-5,40,100,63,228359,25551,6780,9505,5404,2369,1581,922,Tag0,unknown
1500041608214,0,96,2.109375E-5,40,100,63,228359,25551,6780,9505,5404,2369,1581,922,Tag0,unknown
1500041608214,0,-110,-2.4169921875E-5,40,100,63,228359,25551,6780,9505,5404,2369,1581,922,Tag0,unknown
1500041608215,0,-115,-2.52685546875E-5,40,100,63,228359,25551,6780,9505,5404,2369,1581,922,Tag0,unknown
1500041608215,0,83,1.82373046875E-5,40,100,63,228359,25551,6780,9505,5404,2369,1581,922,Tag0,unknown
1500041608215,0,38,8.349609375E-6,40,100,63,228359,25551,6780,9505,5404,2369,1581,922,Tag0,unknown
1500041608216,0,43,9.448242187500001E-6,40,100,63,228359,25551,6780,9505,5404,2369,1581,922,Tag0,unknown
1500041608216,0,86,1.8896484375000003E-5,40,100,63,228359,25551,6780,9505,5404,2369,1581,922,Tag0,unknown
1500041608236,0,107,2.35107421875E-5,40,100,63,228359,25551,6780,9505,5404,2369,1581,922,Tag0,unknown
1500041608241,0,66,1.4501953125E-5,40,100,63,228359,25551,6780,9505,5404,2369,1581,922,Tag0,unknown
1500041608242,0,8,1.7578125E-6,40,100,63,228359,25551,6780,9505,5404,2369,1581,922,Tag0,unknown
1500041608242,0,2,4.39453125E-7,40,100,63,228359,25551,6780,9505,5404,2369,1581,922,Tag0,unknown
1500041608243,0,41,9.008789062499999E-6,40,100,63,228359,25551,6780,9505,5404,2369,1581,922,Tag0,unknown
1500041608244,0,64,1.40625E-5,40,100,63,228359,25551,6780,9505,5404,2369,1581,922,Tag0,unknown
1500041608244,0,35,7.6904296875E-6,40,100,63,228359,25551,6780,9505,5404,2369,1581,922,Tag0,unknown
1500041608245,0,5,1.0986328125E-6,40,100,63,228359,25551,6780,9505,5404,2369,1581,922,Tag0,unknown
1500041608245,0,23,5.0537109375E-6,40,100,63,228359,25551,6780,9505,5404,2369,1581,922,Tag0,unknown
1500041608246,0,66,1.4501953125E-5,40,100,63,228359,25551,6780,9505,5404,2369,1581,922,Tag0,unknown
1500041608246,0,82,1.8017578124999998E-5,40,100,63,228359,25551,6780,9505,5404,2369,1581,922,Tag0,unknown
1500041608247,0,51,1.1206054687499999E-5,40,100,63,228359,25551,6780,9505,5404,2369,1581,922,Tag0,unknown
1500041608247,0,3,6.591796875E-7,40,100,63,228359,25551,6780,9505,5404,2369,1581,922,Tag0,unknown
1500041608248,0,-275,-6.04248046875E-5,40,100,63,228359,25551,6780,9505,5404,2369,1581,922,Tag0,unknown
1500041608248,0,16,3.515625E-6,40,100,63,228359,25551,6780,9505,5404,2369,1581,922,Tag0,unknown
1500041608249,0,66,1.4501953125E-5,40,100,63,228359,25551,6780,9505,5404,2369,1581,922,Tag0,unknown
1500041608249,0,70,1.5380859375E-5,40,100,63,228359,25551,6780,9505,5404,2369,1581,922,Tag0,unknown
1500041608249,0,54,1.1865234375000001E-5,40,100,63,228359,25551,6780,9505,5404,2369,1581,922,Tag0,unknown
1500041608250,0,76,1.669921875E-5,40,100,63,228359,25551,6780,9505,5404,2369,1581,922,Tag0,unknown
1500041608250,0,122,2.6806640625E-5,40,100,63,228359,25551,6780,9505,5404,2369,1581,922,Tag0,unknown
1500041608273,0,-102,-2.2412109374999998E-5,40,100,63,228359,25551,6780,9505,5404,2369,1581,922,Tag0,unknown
1500041608292,0,-119,-2.6147460937500004E-5,40,100,63,228359,25551,6780,9505,5404,2369,1581,922,Tag0,unknown
1500041608292,0,90,1.9775390625E-5,40,100,63,228359,25551,6780,9505,5404,2369,1581,922,Tag0,unknown
1500041608293,0,68,1.4941406250000001E-5,40,100,63,228359,25551,6780,9505,5404,2369,1581,922,Tag0,unknown
1500041608294,0,96,2.109375E-5,40,100,63,228359,25551,6780,9505,5404,2369,1581,922,Tag0,unknown
1500041608295,0,-125,-2.74658203125E-5,40,100,63,228359,25551,6780,9505,5404,2369,1581,922,Tag0,unknown
1500041608296,0,106,2.3291015625000003E-5,40,100,63,228359,25551,6780,9505,5404,2369,1581,922,Tag0,unknown
1500041608297,0,45,9.8876953125E-6,40,100,63,228359,25551,6780,9505,5404,2369,1581,922,Tag0,unknown
1500041608298,0,22,4.833984375E-6,40,100,63,228359,25551,6780,9505,5404,2369,1581,922,Tag0,unknown
1500041608298,0,48,1.0546875E-5,40,100,63,228359,25551,6780,9505,5404,2369,1581,922,Tag0,unknown
1500041608299,0,91,1.99951171875E-5,40,100,63,228359,25551,6780,9505,5404,2369,1581,922,Tag0,unknown
