timestampMs,poorSignal,eegRawValue,eegRawValueVolts,attention,meditation,blinkStrength,delta,theta,alphaLow,alphaHigh,betaLow,betaHigh,gammaLow,gammaMid,tagEvent,location
1499247405922,0,54,1.1865234375000001E-5,48,97,61,113971,7034,14689,13130,12559,3973,2609,998,Tag0,unknown
1499247405923,0,5,1.0986328125E-6,48,97,61,113971,7034,14689,13130,12559,3973,2609,998,Tag0,unknown
1499247405923,0,-263,-5.7788085937500005E-5,48,97,61,113971,7034,14689,13130,12559,3973,2609,998,Tag0,unknown
1499247405923,0,3,6.591796875E-7,48,97,61,113971,7034,14689,13130,12559,3973,2609,998,Tag0,unknown
1499247405924,0,16,3.515625E-6,48,97,61,113971,7034,14689,13130,12559,3973,2609,998,Tag0,unknown
1499247405924,0,-274,-6.0205078124999997E-5,48,97,61,113971,7034,14689,13130,12559,3973,2609,998,Tag0,unknown
1499247405924,0,-315,-6.92138671875E-5,48,97,61,113971,7034,14689,13130,12559,3973,2609,998,Tag0,unknown
1499247405925,0,-291,-6.39404296875E-5,48,97,61,113971,7034,14689,13130,12559,3973,2609,998,Tag0,unknown
1499247405925,0,16,3.515625E-6,48,97,61,113971,7034,14689,13130,12559,3973,2609,998,Tag0,unknown
1499247405925,0,39,8.5693359375E-6,48,97,61,113971,7034,14689,13130,12559,3973,2609,998,Tag0,unknown
1499247405926,0,34,7.4707031250000005E-6,48,97,61,113971,7034,14689,13130,12559,3973,2609,998,Tag0,unknown
1499247405927,0,24,5.2734375E-6,48,97,61,113971,7034,14689,13130,12559,3973,2609,998,Tag0,unknown
1499247405928,0,28,6.15234375E-6,48,97,61,113971,7034,14689,13130,12559,3973,2609,998,Tag0,unknown
1499247405928,0,44,9.66796875E-6,48,97,61,113971,7034,14689,13130,12559,3973,2609,998,Tag0,unknown
1499247405928,0,65,1.42822265625E-5,48,97,61,113971,7034,14689,13130,12559,3973,2609,998,Tag0,unknown
1499247405929,0,69,1.51611328125E-5,48,97,61,113971,7034,14689,13130,12559,3973,2609,998,Tag0,unknown
1499247405935,0,68,1.4941406250000001E-5,48,97,61,113971,7034,14689,13130,12559,3973,2609,998,Tag0,unknown
1499247405935,0,73,1.6040039062500002E-5,48,97,61,113971,7034,14689,13130,12559,3973,2609,998,Tag0,unknown
1499247405936,0,77,1.69189453125E-5,48,97,61,113971,7034,14689,13130,12559,3973,2609,998,Tag0,unknown
1499247405936,0,85,1.86767578125E-5,48,97,61,113971,7034,14689,13130,12559,3973,2609,998,Tag0,unknown
1499247405937,0,84,1.8457031250000004E-5,48,97,61,113971,7034,14689,13130,12559,3973,2609,998,Tag0,unknown
1499247405937,0,73,1.6040039062500002E-5,48,97,61,113971,7034,14689,13130,12559,3973,2609,998,Tag0,unknown
1499247405938,0,72,1.58203125E-5,48,97,61,113971,7034,14689,13130,12559,3973,2609,998,Tag0,unknown
1499247405939,0,107,2.35107421875E-5,48,97,61,113971,7034,14689,13130,12559,3973,2609,998,Tag0,unknown
1499247405939,0,-120,-2.63671875E-5,48,97,61,113971,7034,14689,13130,12559,3973,2609,998,Tag0,unknown
1499247405939,0,120,2.63671875E-5,48,97,61,113971,7034,14689,13130,12559,3973,2609,998,Tag0,unknown
1499247405940,0,83,1.82373046875E-5,48,97,61,113971,7034,14689,13130,12559,3973,2609,998,Tag0,unknown
1499247405940,0,42,9.228515625000002E-6,48,97,61,113971,7034,14689,13130,12559,3973,2609,998,Tag0,unknown
1499247405941,0,24,5.2734375E-6,48,97,61,113971,7034,14689,13130,12559,3973,2609,998,Tag0,unknown
1499247405941,0,52,1.142578125E-5,48,97,61,113971,7034,14689,13130,12559,3973,2609,998,Tag0,unknown
1499247405941,0,93,2.04345703125E-5,48,97,61,113971,7034,14689,13130,12559,3973,2609,998,Tag0,unknown
1499247405941,0,107,2.35107421875E-5,48,97,61,113971,7034,14689,13130,12559,3973,2609,998,Tag0,unknown
1499247405965,0,87,1.91162109375E-5,35,77,61,64121,89362,6561,3142,1920,3856,4751,3002,Tag0,unknown
1499247405966,0,66,1.4501953125E-5,35,77,61,64121,89362,6561,3142,1920,3856,4751,3002,Tag0,unknown
1499247405967,0,60,1.318359375E-5,35,77,61,64121,89362,6561,3142,1920,3856,4751,3002,Tag0,unknown
1499247405967,0,66,1.4501953125E-5,35,77,61,64121,89362,6561,3142,1920,3856,4751,3002,Tag0,unknown
1499247405967,0,66,1.4501953125E-5,35,77,61,64121,89362,6561,3142,1920,3856,4751,3002,Tag0,unknown
1499247405968,0,64,1.40625E-5,35,77,61,64121,89362,6561,3142,1920,3856,4751,3002,Tag0,unknown
1499247405968,0,57,1.2524414062500001E-5,35,77,61,64121,89362,6561,3142,1920,3856,4751,3002,Tag0,unknown
1499247405969,0,43,9.448242187500001E-6,35,77,61,64121,89362,6561,3142,1920,3856,4751,3002,Tag0,unknown
1499247405979,0,20,4.39453125E-6,35,77,61,64121,89362,6561,3142,1920,3856,4751,3002,Tag0,unknown
1499247405981,0,9,1.9775390625E-6,35,77,61,64121,89362,6561,3142,1920,3856,4751,3002,Tag0,unknown
1499247405982,0,21,4.614257812500001E-6,35,77,61,64121,89362,6561,3142,1920,3856,4751,3002,Tag0,unknown
1499247405982,0,37,8.1298828125E-6,35,77,61,64121,89362,6561,3142,1920,3856,4751,3002,Tag0,unknown
1499247405983,0,57,1.2524414062500001E-5,35,77,61,64121,89362,6561,3142,1920,3856,4751,3002,Tag0,unknown
1499247405983,0,75,1.64794921875E-5,35,77,61,64121,89362,6561,3142,1920,3856,4751,3002,Tag0,unknown
1499247405983,0,65,1.42822265625E-5,35,77,61,64121,89362,6561,3142,1920,3856,4751,3002,Tag0,unknown
1499247405983,0,42,9.228515625000002E-6,35,77,61,64121,89362,6561,3142,1920,3856,4751,3002,Tag0,unknown
1499247405984,0,44,9.66796875E-6,35,77,61,64121,89362,6561,3142,1920,3856,4751,3002,Tag0,unknown
1499247405984,0,53,1.1645507812500002E-5,35,77,61,64121,89362,6561,3142,1920,3856,4751,3002,Tag0,unknown
1499247405984,0,50,1.0986328125E-5,35,77,61,64121,89362,6561,3142,1920,3856,4751,3002,Tag0,unknown
1499247405985,0,43,9.448242187500001E-6,35,77,61,64121,89362,6561,3142,1920,3856,4751,3002,Tag0,unknown
1499247405985,0,49,1.07666015625E-5,35,77,61,64121,89362,6561,3142,1920,3856,4751,3002,Tag0,unknown
1499247405985,0,65,1.42822265625E-5,35,77,61,64121,89362,6561,3142,1920,3856,4751,3002,Tag0,unknown
1499247405986,0,74,1.6259765625E-5,35,77,61,64121,89362,6561,3142,1920,3856,4751,3002,Tag0,unknown
1499247405986,0,68,1.4941406250000001E-5,35,77,61,64121,89362,6561,3142,1920,3856,4751,3002,Tag0,unknown
1499247405986,0,49,1.07666015625E-5,35,77,61,64121,89362,6561,3142,1920,3856,4751,3002,Tag0,unknown
1499247405987,0,38,8.349609375E-6,35,77,61,64121,89362,6561,3142,1920,3856,4751,3002,Tag0,unknown
1499247405987,0,48,1.0546875E-5,35,77,61,64121,89362,6561,3142,1920,3856,4751,3002,Tag0,unknown
1499247405987,0,56,1.23046875E-5,35,77,61,64121,89362,6561,3142,1920,3856,4751,3002,Tag0,unknown
1499247405988,0,60,1.318359375E-5,35,77,61,64121,89362,6561,3142,1920,3856,4751,3002,Tag0,unknown
1499247405988,0,60,1.318359375E-5,35,77,61,64121,89362,6561,3142,1920,3856,4751,3002,Tag0,unknown
1499247405988,0,72,1.58203125E-5,35,77,61,64121,89362,6561,3142,1920,3856,4751,3002,Tag0,unknown
1499247405989,0,80,1.7578125E-5,35,77,61,64121,89362,6561,3142,1920,3856,4751,3002,Tag0,unknown
1499247405989,0,69,1.51611328125E-5,35,77,61,64121,89362,6561,3142,1920,3856,4751,3002,Tag0,unknown
1499247405998,0,68,1.4941406250000001E-5,35,77,61,64121,89362,6561,3142,1920,3856,4751,3002,Tag0,unknown
1499247405999,0,91,1.99951171875E-5,35,77,61,64121,89362,6561,3142,1920,3856,4751,3002,Tag0,unknown
1499247405999,0,103,2.26318359375E-5,35,77,61,64121,89362,6561,3142,1920,3856,4751,3002,Tag0,unknown
1499247406000,0,77,1.69189453125E-5,35,77,61,64121,89362,6561,3142,1920,3856,4751,3002,Tag0,unknown
1499247406001,0,51,1.1206054687499999E-5,35,77,61,64121,89362,6561,3142,1920,3856,4751,3002,Tag0,unknown
1499247406001,0,67,1.4721679687500002E-5,35,77,61,64121,89362,6561,3142,1920,3856,4751,3002,Tag0,unknown
1499247406002,0,98,2.1533203125E-5,35,77,61,64121,89362,6561,3142,1920,3856,4751,3002,Tag0,unknown
1499247406002,0,88,1.93359375E-5,35,77,61,64121,89362,6561,3142,1920,3856,4751,3002,Tag0,unknown
1499247406002,0,60,1.318359375E-5,35,77,61,64121,89362,6561,3142,1920,3856,4751,3002,Tag0,unknown
1499247406003,0,71,1.56005859375E-5,35,77,61,64121,89362,6561,3142,1920,3856,4751,3002,Tag0,unknown
1499247406003,0,98,2.1533203125E-5,35,77,61,64121,89362,6561,3142,1920,3856,4751,3002,Tag0,unknown
1499247406004,0,106,2.3291015625000003E-5,35,77,61,64121,89362,6561,3142,1920,3856,4751,3002,Tag0,unknown
1499247406004,0,101,2.2192382812500002E-5,35,77,61,64121,89362,6561,3142,1920,3856,4751,3002,Tag0,unknown
1499247406005,0,87,1.91162109375E-5,35,77,61,64121,89362,6561,3142,1920,3856,4751,3002,Tag0,unknown
1499247406006,0,92,2.021484375E-5,35,77,61,64121,89362,6561,3142,1920,3856,4751,3002,Tag0,unknown
1499247406007,0,121,2.6586914062500003E-5,35,77,61,64121,89362,6561,3142,1920,3856,4751,3002,Tag0,unknown
1499247406007,0,-116,-2.548828125E-5,35,77,61,64121,89362,6561,3142,1920,3856,4751,3002,Tag0,unknown
1499247406008,0,124,2.724609375E-5,35,77,61,64121,89362,6561,3142,1920,3856,4751,3002,Tag0,unknown
1499247406008,0,86,1.8896484375000003E-5,35,77,61,64121,89362,6561,3142,1920,3856,4751,3002,Tag0,unknown
1499247406009,0,85,1.86767578125E-5,35,77,61,64121,89362,6561,3142,1920,3856,4751,3002,Tag0,unknown
1499247406009,0,92,2.021484375E-5,35,77,61,64121,89362,6561,3142,1920,3856,4751,3002,Tag0,unknown
1499247406009,0,75,1.64794921875E-5,35,77,61,64121,89362,6561,3142,1920,3856,4751,3002,Tag0,unknown
1499247406010,0,53,1.1645507812500002E-5,35,77,61,64121,89362,6561,3142,1920,3856,4751,3002,Tag0,unknown
1499247406010,0,44,9.66796875E-6,35,77,61,64121,89362,6561,3142,1920,3856,4751,3002,Tag0,unknown
1499247406011,0,51,1.1206054687499999E-5,35,77,61,64121,89362,6561,3142,1920,3856,4751,3002,Tag0,unknown
1499247406011,0,54,1.1865234375000001E-5,35,77,61,64121,89362,6561,3142,1920,3856,4751,3002,Tag0,unknown
1499247406011,0,58,1.2744140625E-5,35,77,61,64121,89362,6561,3142,1920,3856,4751,3002,Tag0,unknown
1499247406012,0,71,1.56005859375E-5,35,77,61,64121,89362,6561,3142,1920,3856,4751,3002,Tag0,unknown
1499247406012,0,52,1.142578125E-5,35,77,61,64121,89362,6561,3142,1920,3856,4751,3002,Tag0,unknown
1499247406012,0,9,1.9775390625E-6,35,77,61,64121,89362,6561,3142,1920,3856,4751,3002,Tag0,unknown
1499247406013,0,-261,-5.73486328125E-5,35,77,61,64121,89362,6561,3142,1920,3856,4751,3002,Tag0,unknown
1499247406013,0,25,5.4931640625E-6,35,77,61,64121,89362,6561,3142,1920,3856,4751,3002,Tag0,unknown
1499247406014,0,67,1.4721679687500002E-5,35,77,61,64121,89362,6561,3142,1920,3856,4751,3002,Tag0,unknown
1499247406014,0,65,1.42822265625E-5,35,77,61,64121,89362,6561,3142,1920,3856,4751,3002,Tag0,unknown
1499247406014,0,38,8.349609375E-6,35,77,61,64121,89362,6561,3142,1920,3856,4751,3002,Tag0,unknown
1499247406015,0,17,3.7353515625000003E-6,35,77,61,64121,89362,6561,3142,1920,3856,4751,3002,Tag0,unknown
1499247406015,0,8,1.7578125E-6,35,77,61,64121,89362,6561,3142,1920,3856,4751,3002,Tag0,unknown
1499247406016,0,8,1.7578125E-6,35,77,61,64121,89362,6561,3142,1920,3856,4751,3002,Tag0,unknown
1499247406016,0,5,1.0986328125E-6,35,77,61,64121,89362,6561,3142,1920,3856,4751,3002,Tag0,unknown
1499247406017,0,3,6.591796875E-7,35,77,61,64121,89362,6561,3142,1920,3856,4751,3002,Tag0,unknown
1499247406017,0,21,4.614257812500001E-6,35,77,61,64121,89362,6561,3142,1920,3856,4751,3002,Tag0,unknown
1499247406017,0,28,6.15234375E-6,35,77,61,64121,89362,6561,3142,1920,3856,4751,3002,Tag0,unknown
1499247406018,0,17,3.7353515625000003E-6,35,77,61,64121,89362,6561,3142,1920,3856,4751,3002,Tag0,unknown
1499247406018,0,7,1.5380859375E-6,35,77,61,64121,89362,6561,3142,1920,3856,4751,3002,Tag0,unknown
1499247406018,0,11,2.4169921875E-6,35,77,61,64121,89362,6561,3142,1920,3856,4751,3002,Tag0,unknown
1499247406018,0,28,6.15234375E-6,35,77,61,64121,89362,6561,3142,1920,3856,4751,3002,Tag0,unknown
1499247406019,0,39,8.5693359375E-6,35,77,61,64121,89362,6561,3142,1920,3856,4751,3002,Tag0,unknown
1499247406019,0,40,8.7890625E-6,35,77,61,64121,89362,6561,3142,1920,3856,4751,3002,Tag0,unknown
1499247406019,0,24,5.2734375E-6,35,77,61,64121,89362,6561,3142,1920,3856,4751,3002,Tag0,unknown
1499247406023,0,0,0.0,35,77,61,64121,89362,6561,3142,1920,3856,4751,3002,Tag0,unknown
1499247406024,0,-264,-5.80078125E-5,35,77,61,64121,89362,6561,3142,1920,3856,4751,3002,Tag0,unknown
1499247406024,0,32,7.03125E-6,35,77,61,64121,89362,6561,3142,1920,3856,4751,3002,Tag0,unknown
1499247406025,0,84,1.8457031250000004E-5,35,77,61,64121,89362,6561,3142,1920,3856,4751,3002,Tag0,unknown
1499247406025,0,96,2.109375E-5,35,77,61,64121,89362,6561,3142,1920,3856,4751,3002,Tag0,unknown
1499247406026,0,82,1.8017578124999998E-5,35,77,61,64121,89362,6561,3142,1920,3856,4751,3002,Tag0,unknown
1499247406026,0,75,1.64794921875E-5,35,77,61,64121,89362,6561,3142,1920,3856,4751,3002,Tag0,unknown
1499247406026,0,75,1.64794921875E-5,35,77,61,64121,89362,6561,3142,1920,3856,4751,3002,Tag0,unknown
1499247406027,0,82,1.8017578124999998E-5,35,77,61,64121,89362,6561,3142,1920,3856,4751,3002,Tag0,unknown
1499247406027,0,70,1.5380859375E-5,35,77,61,64121,89362,6561,3142,1920,3856,4751,3002,Tag0,unknown
1499247406027,0,40,8.7890625E-6,35,77,61,64121,89362,6561,3142,1920,3856,4751,3002,Tag0,unknown
1499247406027,0,28,6.15234375E-6,35,77,61,64121,89362,6561,3142,1920,3856,4751,3002,Tag0,unknown
1499247406028,0,41,9.008789062499999E-6,35,77,61,64121,89362,6561,3142,1920,3856,4751,3002,Tag0,unknown
1499247406028,0,52,1.142578125E-5,35,77,61,64121,89362,6561,3142,1920,3856,4751,3002,Tag0,unknown
1499247406029,0,39,8.5693359375E-6,35,77,61,64121,89362,6561,3142,1920,3856,4751,3002,Tag0,unknown
1499247406029,0,19,4.1748046875E-6,35,77,61,64121,89362,6561,3142,1920,3856,4751,3002,Tag0,unknown
1499247406029,0,-263,-5.7788085937500005E-5,35,77,61,64121,89362,6561,3142,1920,3856,4751,3002,Tag0,unknown
1499247406029,0,-267,-5.86669921875E-5,35,77,61,64121,89362,6561,3142,1920,3856,4751,3002,Tag0,unknown
1499247406030,0,6,1.318359375E-6,35,77,61,64121,89362,6561,3142,1920,3856,4751,3002,Tag0,unknown
1499247406030,0,13,2.8564453125E-6,35,77,61,64121,89362,6561,3142,1920,3856,4751,3002,Tag0,unknown
1499247406030,0,9,1.9775390625E-6,35,77,61,64121,89362,6561,3142,1920,3856,4751,3002,Tag0,unknown
1499247406031,0,12,2.63671875E-6,35,77,61,64121,89362,6561,3142,1920,3856,4751,3002,Tag0,unknown
1499247406031,0,50,1.0986328125E-5,35,77,61,64121,89362,6561,3142,1920,3856,4751,3002,Tag0,unknown
1499247406031,0,96,2.109375E-5,35,77,61,64121,89362,6561,3142,1920,3856,4751,3002,Tag0,unknown
1499247406031,0,103,2.26318359375E-5,35,77,61,64121,89362,6561,3142,1920,3856,4751,3002,Tag0,unknown
1499247406032,0,92,2.021484375E-5,35,77,61,64121,89362,6561,3142,1920,3856,4751,3002,Tag0,unknown
1499247406047,0,98,2.1533203125E-5,35,77,61,64121,89362,6561,3142,1920,3856,4751,3002,Tag0,unknown
1499247406047,0,-121,-2.6586914062500003E-5,35,77,61,64121,89362,6561,3142,1920,3856,4751,3002,Tag0,unknown
1499247406048,0,-68,-1.4941406250000001E-5,35,77,61,64121,89362,6561,3142,1920,3856,4751,3002,Tag0,unknown
1499247406049,0,-15,-3.2958984375E-6,35,77,61,64121,89362,6561,3142,1920,3856,4751,3002,Tag0,unknown
1499247406050,0,279,6.13037109375E-5,35,77,61,64121,89362,6561,3142,1920,3856,4751,3002,Tag0,unknown
1499247406051,0,292,6.416015625000001E-5,35,77,61,64121,89362,6561,3142,1920,3856,4751,3002,Tag0,unknown
1499247406051,0,321,7.053222656250001E-5,35,77,61,64121,89362,6561,3142,1920,3856,4751,3002,Tag0,unknown
1499247406051,0,363,7.97607421875E-5,35,77,61,64121,89362,6561,3142,1920,3856,4751,3002,Tag0,unknown
1499247406052,0,139,3.0541992187500004E-5,35,77,61,64121,89362,6561,3142,1920,3856,4751,3002,Tag0,unknown
1499247406052,0,166,3.6474609375E-5,35,77,61,64121,89362,6561,3142,1920,3856,4751,3002,Tag0,unknown
1499247406052,0,215,4.72412109375E-5,35,77,61,64121,89362,6561,3142,1920,3856,4751,3002,Tag0,unknown
1499247406052,0,541,1.1887207031250001E-4,35,77,61,64121,89362,6561,3142,1920,3856,4751,3002,Tag0,unknown
1499247406053,0,592,1.30078125E-4,35,77,61,64121,89362,6561,3142,1920,3856,4751,3002,Tag0,unknown
1499247406053,0,600,1.318359375E-4,35,77,61,64121,89362,6561,3142,1920,3856,4751,3002,Tag0,unknown
1499247406053,0,617,1.355712890625E-4,35,77,61,64121,89362,6561,3142,1920,3856,4751,3002,Tag0,unknown
1499247406053,0,404,8.876953125000001E-5,35,77,61,64121,89362,6561,3142,1920,3856,4751,3002,Tag0,unknown
1499247406054,0,420,9.228515625E-5,35,77,61,64121,89362,6561,3142,1920,3856,4751,3002,Tag0,unknown
1499247406054,0,630,1.38427734375E-4,35,77,61,64121,89362,6561,3142,1920,3856,4751,3002,Tag0,unknown
1499247406054,0,573,1.259033203125E-4,35,77,61,64121,89362,6561,3142,1920,3856,4751,3002,Tag0,unknown
1499247406054,0,593,1.3029785156250002E-4,35,77,61,64121,89362,6561,3142,1920,3856,4751,3002,Tag0,unknown
1499247406055,0,425,9.33837890625E-5,35,77,61,64121,89362,6561,3142,1920,3856,4751,3002,Tag0,unknown
1499247406055,0,502,1.1030273437500001E-4,35,77,61,64121,89362,6561,3142,1920,3856,4751,3002,Tag0,unknown
1499247406056,0,792,1.7402343750000002E-4,35,77,61,64121,89362,6561,3142,1920,3856,4751,3002,Tag0,unknown
1499247406056,0,787,1.729248046875E-4,35,77,61,64121,89362,6561,3142,1920,3856,4751,3002,Tag0,unknown
1499247406056,0,485,1.065673828125E-4,35,77,61,64121,89362,6561,3142,1920,3856,4751,3002,Tag0,unknown
1499247406056,0,442,9.7119140625E-5,35,77,61,64121,89362,6561,3142,1920,3856,4751,3002,Tag0,unknown
1499247406057,0,435,9.55810546875E-5,35,77,61,64121,89362,6561,3142,1920,3856,4751,3002,Tag0,unknown
1499247406057,0,440,9.66796875E-5,35,77,61,64121,89362,6561,3142,1920,3856,4751,3002,Tag0,unknown
1499247406057,0,439,9.64599609375E-5,35,77,61,64121,89362,6561,3142,1920,3856,4751,3002,Tag0,unknown
1499247406058,0,412,9.052734375E-5,35,77,61,64121,89362,6561,3142,1920,3856,4751,3002,Tag0,unknown
1499247406058,0,605,1.329345703125E-4,35,77,61,64121,89362,6561,3142,1920,3856,4751,3002,Tag0,unknown
1499247406058,0,516,1.1337890625000001E-4,35,77,61,64121,89362,6561,3142,1920,3856,4751,3002,Tag0,unknown
1499247406059,0,187,4.10888671875E-5,35,77,61,64121,89362,6561,3142,1920,3856,4751,3002,Tag0,unknown
1499247406059,0,160,3.515625E-5,35,77,61,64121,89362,6561,3142,1920,3856,4751,3002,Tag0,unknown
1499247406059,0,162,3.5595703125E-5,35,77,61,64121,89362,6561,3142,1920,3856,4751,3002,Tag0,unknown
1499247406060,0,157,3.44970703125E-5,35,77,61,64121,89362,6561,3142,1920,3856,4751,3002,Tag0,unknown
1499247406060,0,145,3.18603515625E-5,35,77,61,64121,89362,6561,3142,1920,3856,4751,3002,Tag0,unknown
1499247406060,0,166,3.6474609375E-5,35,77,61,64121,89362,6561,3142,1920,3856,4751,3002,Tag0,unknown
1499247406060,0,181,3.9770507812500004E-5,35,77,61,64121,89362,6561,3142,1920,3856,4751,3002,Tag0,unknown
1499247406061,0,380,8.349609375E-5,35,77,61,64121,89362,6561,3142,1920,3856,4751,3002,Tag0,unknown
1499247406068,0,281,6.17431640625E-5,35,77,61,64121,89362,6561,3142,1920,3856,4751,3002,Tag0,unknown
1499247406081,0,-46,-1.0107421875E-5,35,77,61,64121,89362,6561,3142,1920,3856,4751,3002,Tag0,unknown
1499247406083,0,-84,-1.8457031250000004E-5,35,77,61,64121,89362,6561,3142,1920,3856,4751,3002,Tag0,unknown
1499247406084,0,-100,-2.197265625E-5,35,77,61,64121,89362,6561,3142,1920,3856,4751,3002,Tag0,unknown
1499247406084,0,-112,-2.4609375E-5,35,77,61,64121,89362,6561,3142,1920,3856,4751,3002,Tag0,unknown
1499247406084,0,-123,-2.70263671875E-5,35,77,61,64121,89362,6561,3142,1920,3856,4751,3002,Tag0,unknown
1499247406085,0,-111,-2.43896484375E-5,35,77,61,64121,89362,6561,3142,1920,3856,4751,3002,Tag0,unknown
1499247406085,0,-116,-2.548828125E-5,35,77,61,64121,89362,6561,3142,1920,3856,4751,3002,Tag0,unknown
1499247406085,0,112,2.4609375E-5,35,77,61,64121,89362,6561,3142,1920,3856,4751,3002,Tag0,unknown
1499247406086,0,83,1.82373046875E-5,35,77,61,64121,89362,6561,3142,1920,3856,4751,3002,Tag0,unknown
1499247406104,0,77,1.69189453125E-5,35,77,61,64121,89362,6561,3142,1920,3856,4751,3002,Tag0,unknown
1499247406105,0,72,1.58203125E-5,35,77,61,64121,89362,6561,3142,1920,3856,4751,3002,Tag0,unknown
1499247406112,0,54,1.1865234375000001E-5,35,77,61,64121,89362,6561,3142,1920,3856,4751,3002,Tag0,unknown
1499247406113,0,52,1.142578125E-5,35,77,61,64121,89362,6561,3142,1920,3856,4751,3002,Tag0,unknown
1499247406113,0,54,1.1865234375000001E-5,35,77,61,64121,89362,6561,3142,1920,3856,4751,3002,Tag0,unknown
1499247406113,0,34,7.4707031250000005E-6,35,77,61,64121,89362,6561,3142,1920,3856,4751,3002,Tag0,unknown
1499247406114,0,-262,-5.7568359375E-5,35,77,61,64121,89362,6561,3142,1920,3856,4751,3002,Tag0,unknown
1499247406114,0,-285,-6.26220703125E-5,35,77,61,64121,89362,6561,3142,1920,3856,4751,3002,Tag0,unknown
1499247406114,0,-279,-6.13037109375E-5,35,77,61,64121,89362,6561,3142,1920,3856,4751,3002,Tag0,unknown
1499247406115,0,-275,-6.04248046875E-5,35,77,61,64121,89362,6561,3142,1920,3856,4751,3002,Tag0,unknown
1499247406131,0,-306,-6.723632812500001E-5,35,77,61,64121,89362,6561,3142,1920,3856,4751,3002,Tag0,unknown
1499247406132,0,-365,-8.02001953125E-5,35,77,61,64121,89362,6561,3142,1920,3856,4751,3002,Tag0,unknown
1499247406145,0,-138,-3.0322265625E-5,35,77,61,64121,89362,6561,3142,1920,3856,4751,3002,Tag0,unknown
1499247406146,0,-380,-8.349609375E-5,35,77,61,64121,89362,6561,3142,1920,3856,4751,3002,Tag0,unknown
1499247406146,0,-133,-2.92236328125E-5,35,77,61,64121,89362,6561,3142,1920,3856,4751,3002,Tag0,unknown
1499247406147,0,-154,-3.3837890625E-5,35,77,61,64121,89362,6561,3142,1920,3856,4751,3002,Tag0,unknown
1499247406147,0,-152,-3.33984375E-5,35,77,61,64121,89362,6561,3142,1920,3856,4751,3002,Tag0,unknown
1499247406147,0,-162,-3.5595703125E-5,35,77,61,64121,89362,6561,3142,1920,3856,4751,3002,Tag0,unknown
1499247406148,0,-186,-4.0869140625E-5,35,77,61,64121,89362,6561,3142,1920,3856,4751,3002,Tag0,unknown
1499247406149,0,-190,-4.1748046875E-5,35,77,61,64121,89362,6561,3142,1920,3856,4751,3002,Tag0,unknown
1499247406149,0,-197,-4.32861328125E-5,35,77,61,64121,89362,6561,3142,1920,3856,4751,3002,Tag0,unknown
1499247406149,0,-215,-4.72412109375E-5,35,77,61,64121,89362,6561,3142,1920,3856,4751,3002,Tag0,unknown
1499247406150,0,-222,-4.8779296875E-5,35,77,61,64121,89362,6561,3142,1920,3856,4751,3002,Tag0,unknown
1499247406150,0,-229,-5.03173828125E-5,35,77,61,64121,89362,6561,3142,1920,3856,4751,3002,Tag0,unknown
1499247406150,0,-226,-4.9658203125E-5,35,77,61,64121,89362,6561,3142,1920,3856,4751,3002,Tag0,unknown
1499247406151,0,-217,-4.76806640625E-5,35,77,61,64121,89362,6561,3142,1920,3856,4751,3002,Tag0,unknown
1499247406151,0,-220,-4.833984375E-5,35,77,61,64121,89362,6561,3142,1920,3856,4751,3002,Tag0,unknown
1499247406151,0,-249,-5.47119140625E-5,35,77,61,64121,89362,6561,3142,1920,3856,4751,3002,Tag0,unknown
1499247406152,0,-532,-1.1689453125E-4,35,77,61,64121,89362,6561,3142,1920,3856,4751,3002,Tag0,unknown
1499247406152,0,-241,-5.29541015625E-5,35,77,61,64121,89362,6561,3142,1920,3856,4751,3002,Tag0,unknown
1499247406346,0,-190,-4.1748046875E-5,35,77,61,64121,89362,6561,3142,1920,3856,4751,3002,Tag0,unknown
1499247406347,0,-205,-4.50439453125E-5,35,77,61,64121,89362,6561,3142,1920,3856,4751,3002,Tag0,unknown
1499247406348,0,-248,-5.44921875E-5,35,77,61,64121,89362,6561,3142,1920,3856,4751,3002,Tag0,unknown
1499247406348,0,-523,-1.149169921875E-4,35,77,61,64121,89362,6561,3142,1920,3856,4751,3002,Tag0,unknown
1499247406349,0,-252,-5.537109375E-5,35,77,61,64121,89362,6561,3142,1920,3856,4751,3002,Tag0,unknown
1499247406349,0,-228,-5.0097656250000005E-5,35,77,61,64121,89362,6561,3142,1920,3856,4751,3002,Tag0,unknown
1499247406350,0,-211,-4.63623046875E-5,35,77,61,64121,89362,6561,3142,1920,3856,4751,3002,Tag0,unknown
1499247406350,0,-209,-4.59228515625E-5,35,77,61,64121,89362,6561,3142,1920,3856,4751,3002,Tag0,unknown
1499247406351,0,-216,-4.7460937500000004E-5,35,77,61,64121,89362,6561,3142,1920,3856,4751,3002,Tag0,unknown
1499247406351,0,-206,-4.5263671875E-5,35,77,61,64121,89362,6561,3142,1920,3856,4751,3002,Tag0,unknown
1499247406355,0,-193,-4.2407226562500005E-5,35,77,61,64121,89362,6561,3142,1920,3856,4751,3002,Tag0,unknown
1499247406359,0,-193,-4.2407226562500005E-5,35,77,61,64121,89362,6561,3142,1920,3856,4751,3002,Tag0,unknown
1499247406360,0,-220,-4.833984375E-5,35,77,61,64121,89362,6561,3142,1920,3856,4751,3002,Tag0,unknown
1499247406361,0,-514,-1.12939453125E-4,35,77,61,64121,89362,6561,3142,1920,3856,4751,3002,Tag0,unknown
1499247406362,0,-252,-5.537109375E-5,35,77,61,64121,89362,6561,3142,1920,3856,4751,3002,Tag0,unknown
1499247406362,0,-233,-5.1196289062500006E-5,35,77,61,64121,89362,6561,3142,1920,3856,4751,3002,Tag0,unknown
1499247406363,0,-246,-5.4052734375E-5,35,77,61,64121,89362,6561,3142,1920,3856,4751,3002,Tag0,unknown
1499247406363,0,-523,-1.149169921875E-4,35,77,61,64121,89362,6561,3142,1920,3856,4751,3002,Tag0,unknown
1499247406363,0,-549,-1.2062988281250001E-4,35,77,61,64121,89362,6561,3142,1920,3856,4751,3002,Tag0,unknown
1499247406364,0,-573,-1.259033203125E-4,35,77,61,64121,89362,6561,3142,1920,3856,4751,3002,Tag0,unknown
1499247406364,0,-589,-1.294189453125E-4,35,77,61,64121,89362,6561,3142,1920,3856,4751,3002,Tag0,unknown
1499247406366,0,-594,-1.3051757812500002E-4,35,77,61,64121,89362,6561,3142,1920,3856,4751,3002,Tag0,unknown
1499247406366,0,-586,-1.28759765625E-4,35,77,61,64121,89362,6561,3142,1920,3856,4751,3002,Tag0,unknown
1499247406367,0,-587,-1.2897949218750003E-4,35,77,61,64121,89362,6561,3142,1920,3856,4751,3002,Tag0,unknown
1499247406368,0,-594,-1.3051757812500002E-4,35,77,61,64121,89362,6561,3142,1920,3856,4751,3002,Tag0,unknown
1499247406368,0,-593,-1.3029785156250002E-4,35,77,61,64121,89362,6561,3142,1920,3856,4751,3002,Tag0,unknown
1499247406369,0,-594,-1.3051757812500002E-4,35,77,61,64121,89362,6561,3142,1920,3856,4751,3002,Tag0,unknown
1499247406369,0,-610,-1.34033203125E-4,35,77,61,64121,89362,6561,3142,1920,3856,4751,3002,Tag0,unknown
1499247406370,0,-606,-1.33154296875E-4,35,77,61,64121,89362,6561,3142,1920,3856,4751,3002,Tag0,unknown
1499247406370,0,-587,-1.2897949218750003E-4,35,77,61,64121,89362,6561,3142,1920,3856,4751,3002,Tag0,unknown
1499247406371,0,-569,-1.250244140625E-4,35,77,61,64121,89362,6561,3142,1920,3856,4751,3002,Tag0,unknown
1499247406371,0,-558,-1.22607421875E-4,35,77,61,64121,89362,6561,3142,1920,3856,4751,3002,Tag0,unknown
1499247406372,0,-553,-1.215087890625E-4,35,77,61,64121,89362,6561,3142,1920,3856,4751,3002,Tag0,unknown
1499247406372,0,-562,-1.23486328125E-4,35,77,61,64121,89362,6561,3142,1920,3856,4751,3002,Tag0,unknown
1499247406373,0,-566,-1.2436523437500002E-4,35,77,61,64121,89362,6561,3142,1920,3856,4751,3002,Tag0,unknown
1499247406374,0,-537,-1.179931640625E-4,35,77,61,64121,89362,6561,3142,1920,3856,4751,3002,Tag0,unknown
1499247406374,0,-250,-5.4931640625E-5,35,77,61,64121,89362,6561,3142,1920,3856,4751,3002,Tag0,unknown
1499247406375,0,-522,-1.14697265625E-4,35,77,61,64121,89362,6561,3142,1920,3856,4751,3002,Tag0,unknown
1499247406375,0,-574,-1.2612304687500001E-4,35,77,61,64121,89362,6561,3142,1920,3856,4751,3002,Tag0,unknown
1499247406376,0,-619,-1.360107421875E-4,35,77,61,64121,89362,6561,3142,1920,3856,4751,3002,Tag0,unknown
1499247406377,0,-387,-8.50341796875E-5,35,77,61,64121,89362,6561,3142,1920,3856,4751,3002,Tag0,unknown
1499247406377,0,-397,-8.72314453125E-5,35,77,61,64121,89362,6561,3142,1920,3856,4751,3002,Tag0,unknown
1499247406377,0,-408,-8.964843749999999E-5,35,77,61,64121,89362,6561,3142,1920,3856,4751,3002,Tag0,unknown
1499247406378,0,-423,-9.29443359375E-5,35,77,61,64121,89362,6561,3142,1920,3856,4751,3002,Tag0,unknown
1499247406378,0,-424,-9.316406250000001E-5,35,77,61,64121,89362,6561,3142,1920,3856,4751,3002,Tag0,unknown
1499247406378,0,-628,-1.3798828125E-4,35,77,61,64121,89362,6561,3142,1920,3856,4751,3002,Tag0,unknown
1499247406379,0,-564,-1.2392578125E-4,35,77,61,64121,89362,6561,3142,1920,3856,4751,3002,Tag0,unknown
1499247406379,0,-254,-5.5810546875E-5,35,77,61,64121,89362,6561,3142,1920,3856,4751,3002,Tag0,unknown
1499247406379,0,-230,-5.0537109375E-5,35,77,61,64121,89362,6561,3142,1920,3856,4751,3002,Tag0,unknown
1499247406379,0,-221,-4.85595703125E-5,35,77,61,64121,89362,6561,3142,1920,3856,4751,3002,Tag0,unknown
1499247406380,0,-198,-4.3505859375000006E-5,35,77,61,64121,89362,6561,3142,1920,3856,4751,3002,Tag0,unknown
1499247406380,0,-150,-3.2958984375E-5,35,77,61,64121,89362,6561,3142,1920,3856,4751,3002,Tag0,unknown
1499247406380,0,-362,-7.954101562500001E-5,35,77,61,64121,89362,6561,3142,1920,3856,4751,3002,Tag0,unknown
1499247406381,0,-365,-8.02001953125E-5,35,77,61,64121,89362,6561,3142,1920,3856,4751,3002,Tag0,unknown
1499247406381,0,-163,-3.5815429687500006E-5,35,77,61,64121,89362,6561,3142,1920,3856,4751,3002,Tag0,unknown
1499247406381,0,-221,-4.85595703125E-5,35,77,61,64121,89362,6561,3142,1920,3856,4751,3002,Tag0,unknown
1499247406381,0,-248,-5.44921875E-5,35,77,61,64121,89362,6561,3142,1920,3856,4751,3002,Tag0,unknown
1499247406382,0,-251,-5.5151367187500004E-5,35,77,61,64121,89362,6561,3142,1920,3856,4751,3002,Tag0,unknown
1499247406382,0,-520,-1.142578125E-4,35,77,61,64121,89362,6561,3142,1920,3856,4751,3002,Tag0,unknown
1499247406382,0,-519,-1.140380859375E-4,35,77,61,64121,89362,6561,3142,1920,3856,4751,3002,Tag0,unknown
1499247406383,0,-213,-4.68017578125E-5,35,77,61,64121,89362,6561,3142,1920,3856,4751,3002,Tag0,unknown
1499247406383,0,-150,-3.2958984375E-5,35,77,61,64121,89362,6561,3142,1920,3856,4751,3002,Tag0,unknown
1499247406383,0,-355,-7.80029296875E-5,35,77,61,64121,89362,6561,3142,1920,3856,4751,3002,Tag0,unknown
1499247406383,0,-328,-7.207031249999999E-5,35,77,61,64121,89362,6561,3142,1920,3856,4751,3002,Tag0,unknown
1499247406384,0,-306,-6.723632812500001E-5,35,77,61,64121,89362,6561,3142,1920,3856,4751,3002,Tag0,unknown
1499247406384,0,-262,-5.7568359375E-5,35,77,61,64121,89362,6561,3142,1920,3856,4751,3002,Tag0,unknown
1499247406384,0,27,5.9326171875000005E-6,35,77,61,64121,89362,6561,3142,1920,3856,4751,3002,Tag0,unknown
1499247406385,0,40,8.7890625E-6,35,77,61,64121,89362,6561,3142,1920,3856,4751,3002,Tag0,unknown
1499247406385,0,38,8.349609375E-6,35,77,61,64121,89362,6561,3142,1920,3856,4751,3002,Tag0,unknown
1499247406385,0,34,7.4707031250000005E-6,35,77,61,64121,89362,6561,3142,1920,3856,4751,3002,Tag0,unknown
1499247406386,0,40,8.7890625E-6,35,77,61,64121,89362,6561,3142,1920,3856,4751,3002,Tag0,unknown
1499247406386,0,55,1.20849609375E-5,35,77,61,64121,89362,6561,3142,1920,3856,4751,3002,Tag0,unknown
1499247406387,0,88,1.93359375E-5,35,77,61,64121,89362,6561,3142,1920,3856,4751,3002,Tag0,unknown
1499247406387,0,113,2.48291015625E-5,35,77,61,64121,89362,6561,3142,1920,3856,4751,3002,Tag0,unknown
1499247406387,0,119,2.6147460937500004E-5,35,77,61,64121,89362,6561,3142,1920,3856,4751,3002,Tag0,unknown
1499247406388,0,125,2.74658203125E-5,35,77,61,64121,89362,6561,3142,1920,3856,4751,3002,Tag0,unknown
1499247406388,0,-117,-2.5708007812499998E-5,35,77,61,64121,89362,6561,3142,1920,3856,4751,3002,Tag0,unknown
1499247406388,0,-108,-2.3730468750000002E-5,35,77,61,64121,89362,6561,3142,1920,3856,4751,3002,Tag0,unknown
1499247406388,0,-105,-2.30712890625E-5,35,77,61,64121,89362,6561,3142,1920,3856,4751,3002,Tag0,unknown
1499247406389,0,-108,-2.3730468750000002E-5,35,77,61,64121,89362,6561,3142,1920,3856,4751,3002,Tag0,unknown
1499247406389,0,-116,-2.548828125E-5,35,77,61,64121,89362,6561,3142,1920,3856,4751,3002,Tag0,unknown
1499247406389,0,-118,-2.5927734375E-5,35,77,61,64121,89362,6561,3142,1920,3856,4751,3002,Tag0,unknown
1499247406390,0,-119,-2.6147460937500004E-5,35,77,61,64121,89362,6561,3142,1920,3856,4751,3002,Tag0,unknown
1499247406390,0,-125,-2.74658203125E-5,35,77,61,64121,89362,6561,3142,1920,3856,4751,3002,Tag0,unknown
1499247406390,0,107,2.35107421875E-5,35,77,61,64121,89362,6561,3142,1920,3856,4751,3002,Tag0,unknown
1499247406391,0,93,2.04345703125E-5,35,77,61,64121,89362,6561,3142,1920,3856,4751,3002,Tag0,unknown
1499247406391,0,113,2.48291015625E-5,35,77,61,64121,89362,6561,3142,1920,3856,4751,3002,Tag0,unknown
1499247406391,0,-118,-2.5927734375E-5,35,77,61,64121,89362,6561,3142,1920,3856,4751,3002,Tag0,unknown
1499247406391,0,-102,-2.2412109374999998E-5,35,77,61,64121,89362,6561,3142,1920,3856,4751,3002,Tag0,unknown
1499247406392,0,-112,-2.4609375E-5,35,77,61,64121,89362,6561,3142,1920,3856,4751,3002,Tag0,unknown
1499247406397,0,-121,-2.6586914062500003E-5,35,77,61,64121,89362,6561,3142,1920,3856,4751,3002,Tag0,unknown
1499247406398,0,-108,-2.3730468750000002E-5,35,77,61,64121,89362,6561,3142,1920,3856,4751,3002,Tag0,unknown
1499247406398,0,-94,-2.0654296875000002E-5,35,77,61,64121,89362,6561,3142,1920,3856,4751,3002,Tag0,unknown
1499247406399,0,-73,-1.6040039062500002E-5,35,77,61,64121,89362,6561,3142,1920,3856,4751,3002,Tag0,unknown
1499247406400,0,-56,-1.23046875E-5,35,77,61,64121,89362,6561,3142,1920,3856,4751,3002,Tag0,unknown
1499247406400,0,-71,-1.56005859375E-5,35,77,61,64121,89362,6561,3142,1920,3856,4751,3002,Tag0,unknown
1499247406400,0,-95,-2.08740234375E-5,35,77,61,64121,89362,6561,3142,1920,3856,4751,3002,Tag0,unknown
1499247406401,0,-101,-2.2192382812500002E-5,35,77,61,64121,89362,6561,3142,1920,3856,4751,3002,Tag0,unknown
1499247406401,0,-91,-1.99951171875E-5,35,77,61,64121,89362,6561,3142,1920,3856,4751,3002,Tag0,unknown
1499247406401,0,-94,-2.0654296875000002E-5,35,77,61,64121,89362,6561,3142,1920,3856,4751,3002,Tag0,unknown
1499247406427,0,-103,-2.26318359375E-5,35,77,61,64121,89362,6561,3142,1920,3856,4751,3002,Tag0,unknown
1499247406427,0,120,2.63671875E-5,35,77,61,64121,89362,6561,3142,1920,3856,4751,3002,Tag0,unknown
1499247406447,0,71,1.56005859375E-5,35,77,61,64121,89362,6561,3142,1920,3856,4751,3002,Tag0,unknown
1499247406447,0,81,1.77978515625E-5,35,77,61,64121,89362,6561,3142,1920,3856,4751,3002,Tag0,unknown
1499247406448,0,124,2.724609375E-5,35,77,61,64121,89362,6561,3142,1920,3856,4751,3002,Tag0,unknown
1499247406448,0,-117,-2.5708007812499998E-5,35,77,61,64121,89362,6561,3142,1920,3856,4751,3002,Tag0,unknown
1499247406448,0,108,2.3730468750000002E-5,35,77,61,64121,89362,6561,3142,1920,3856,4751,3002,Tag0,unknown
1499247406449,0,81,1.77978515625E-5,35,77,61,64121,89362,6561,3142,1920,3856,4751,3002,Tag0,unknown
1499247406449,0,68,1.4941406250000001E-5,35,77,61,64121,89362,6561,3142,1920,3856,4751,3002,Tag0,unknown
1499247406449,0,41,9.008789062499999E-6,35,77,61,64121,89362,6561,3142,1920,3856,4751,3002,Tag0,unknown
1499247406450,0,-258,-5.6689453125000004E-5,35,77,61,64121,89362,6561,3142,1920,3856,4751,3002,Tag0,unknown
1499247406450,0,-313,-6.87744140625E-5,35,77,61,64121,89362,6561,3142,1920,3856,4751,3002,Tag0,unknown
1499247406451,0,-372,-8.173828125E-5,35,77,61,64121,89362,6561,3142,1920,3856,4751,3002,Tag0,unknown
1499247406451,0,-150,-3.2958984375E-5,35,77,61,64121,89362,6561,3142,1920,3856,4751,3002,Tag0,unknown
1499247406451,0,-181,-3.9770507812500004E-5,35,77,61,64121,89362,6561,3142,1920,3856,4751,3002,Tag0,unknown
1499247406451,0,-215,-4.72412109375E-5,35,77,61,64121,89362,6561,3142,1920,3856,4751,3002,Tag0,unknown
1499247406452,0,-245,-5.38330078125E-5,35,77,61,64121,89362,6561,3142,1920,3856,4751,3002,Tag0,unknown
1499247406452,0,-532,-1.1689453125E-4,35,77,61,64121,89362,6561,3142,1920,3856,4751,3002,Tag0,unknown
1499247406452,0,-566,-1.2436523437500002E-4,35,77,61,64121,89362,6561,3142,1920,3856,4751,3002,Tag0,unknown
1499247406453,0,-554,-1.2172851562500001E-4,35,77,61,64121,89362,6561,3142,1920,3856,4751,3002,Tag0,unknown
1499247406453,0,-213,-4.68017578125E-5,35,77,61,64121,89362,6561,3142,1920,3856,4751,3002,Tag0,unknown
1499247406453,0,-362,-7.954101562500001E-5,35,77,61,64121,89362,6561,3142,1920,3856,4751,3002,Tag0,unknown
1499247406453,0,-301,-6.613769531250001E-5,35,77,61,64121,89362,6561,3142,1920,3856,4751,3002,Tag0,unknown
1499247406454,0,-293,-6.43798828125E-5,35,77,61,64121,89362,6561,3142,1920,3856,4751,3002,Tag0,unknown
1499247406454,0,-316,-6.943359375000001E-5,35,77,61,64121,89362,6561,3142,1920,3856,4751,3002,Tag0,unknown
1499247406454,0,-321,-7.053222656250001E-5,35,77,61,64121,89362,6561,3142,1920,3856,4751,3002,Tag0,unknown
1499247406455,0,-310,-6.8115234375E-5,35,77,61,64121,89362,6561,3142,1920,3856,4751,3002,Tag0,unknown
1499247406455,0,-318,-6.9873046875E-5,35,77,61,64121,89362,6561,3142,1920,3856,4751,3002,Tag0,unknown
1499247406456,0,-324,-7.119140625E-5,35,77,61,64121,89362,6561,3142,1920,3856,4751,3002,Tag0,unknown
1499247406456,0,-325,-7.14111328125E-5,35,77,61,64121,89362,6561,3142,1920,3856,4751,3002,Tag0,unknown
1499247406693,0,-353,-7.75634765625E-5,35,77,61,64121,89362,6561,3142,1920,3856,4751,3002,Tag0,unknown
1499247406693,0,-149,-3.27392578125E-5,35,77,61,64121,89362,6561,3142,1920,3856,4751,3002,Tag0,unknown
1499247406694,0,-206,-4.5263671875E-5,35,77,61,64121,89362,6561,3142,1920,3856,4751,3002,Tag0,unknown
1499247406694,0,-234,-5.1416015624999996E-5,35,77,61,64121,89362,6561,3142,1920,3856,4751,3002,Tag0,unknown
1499247406695,0,-182,-3.9990234375E-5,35,77,61,64121,89362,6561,3142,1920,3856,4751,3002,Tag0,unknown
1499247406695,0,-338,-7.426757812499999E-5,35,77,61,64121,89362,6561,3142,1920,3856,4751,3002,Tag0,unknown
1499247406696,0,-258,-5.6689453125000004E-5,35,77,61,64121,89362,6561,3142,1920,3856,4751,3002,Tag0,unknown
1499247406696,0,51,1.1206054687499999E-5,35,77,61,64121,89362,6561,3142,1920,3856,4751,3002,Tag0,unknown
1499247406697,0,107,2.35107421875E-5,35,77,61,64121,89362,6561,3142,1920,3856,4751,3002,Tag0,unknown
1499247406697,0,-79,-1.7358398437500003E-5,35,77,61,64121,89362,6561,3142,1920,3856,4751,3002,Tag0,unknown
1499247406698,0,-31,-6.8115234375E-6,35,77,61,64121,89362,6561,3142,1920,3856,4751,3002,Tag0,unknown
1499247406698,0,-12,-2.63671875E-6,35,77,61,64121,89362,6561,3142,1920,3856,4751,3002,Tag0,unknown
1499247406698,0,-7,-1.5380859375E-6,35,77,61,64121,89362,6561,3142,1920,3856,4751,3002,Tag0,unknown
1499247406699,0,262,5.7568359375E-5,35,77,61,64121,89362,6561,3142,1920,3856,4751,3002,Tag0,unknown
1499247406699,0,275,6.04248046875E-5,35,77,61,64121,89362,6561,3142,1920,3856,4751,3002,Tag0,unknown
1499247406699,0,264,5.80078125E-5,35,77,61,64121,89362,6561,3142,1920,3856,4751,3002,Tag0,unknown
1499247406699,0,-24,-5.2734375E-6,35,77,61,64121,89362,6561,3142,1920,3856,4751,3002,Tag0,unknown
1499247406700,0,-45,-9.8876953125E-6,35,77,61,64121,89362,6561,3142,1920,3856,4751,3002,Tag0,unknown
1499247406700,0,-32,-7.03125E-6,35,77,61,64121,89362,6561,3142,1920,3856,4751,3002,Tag0,unknown
1499247406700,0,-4,-8.7890625E-7,35,77,61,64121,89362,6561,3142,1920,3856,4751,3002,Tag0,unknown
1499247406701,0,260,5.712890625E-5,35,77,61,64121,89362,6561,3142,1920,3856,4751,3002,Tag0,unknown
1499247406701,0,-15,-3.2958984375E-6,35,77,61,64121,89362,6561,3142,1920,3856,4751,3002,Tag0,unknown
1499247406701,0,-26,-5.712890625E-6,35,77,61,64121,89362,6561,3142,1920,3856,4751,3002,Tag0,unknown
1499247406702,0,-13,-2.8564453125E-6,35,77,61,64121,89362,6561,3142,1920,3856,4751,3002,Tag0,unknown
1499247406702,0,276,6.064453125E-5,35,77,61,64121,89362,6561,3142,1920,3856,4751,3002,Tag0,unknown
1499247406702,0,322,7.0751953125E-5,35,77,61,64121,89362,6561,3142,1920,3856,4751,3002,Tag0,unknown
1499247406703,0,338,7.426757812499999E-5,35,77,61,64121,89362,6561,3142,1920,3856,4751,3002,Tag0,unknown
1499247406703,0,310,6.8115234375E-5,35,77,61,64121,89362,6561,3142,1920,3856,4751,3002,Tag0,unknown
1499247406703,0,275,6.04248046875E-5,35,77,61,64121,89362,6561,3142,1920,3856,4751,3002,Tag0,unknown
1499247406703,0,267,5.86669921875E-5,35,77,61,64121,89362,6561,3142,1920,3856,4751,3002,Tag0,unknown
1499247406704,0,280,6.15234375E-5,35,77,61,64121,89362,6561,3142,1920,3856,4751,3002,Tag0,unknown
1499247406704,0,293,6.43798828125E-5,35,77,61,64121,89362,6561,3142,1920,3856,4751,3002,Tag0,unknown
1499247406704,0,298,6.5478515625E-5,35,77,61,64121,89362,6561,3142,1920,3856,4751,3002,Tag0,unknown
1499247406705,0,289,6.35009765625E-5,35,77,61,64121,89362,6561,3142,1920,3856,4751,3002,Tag0,unknown
1499247406705,0,281,6.17431640625E-5,35,77,61,64121,89362,6561,3142,1920,3856,4751,3002,Tag0,unknown
1499247406705,0,274,6.0205078124999997E-5,35,77,61,64121,89362,6561,3142,1920,3856,4751,3002,Tag0,unknown
1499247406706,0,-21,-4.614257812500001E-6,35,77,61,64121,89362,6561,3142,1920,3856,4751,3002,Tag0,unknown
1499247406706,0,-51,-1.1206054687499999E-5,35,77,61,64121,89362,6561,3142,1920,3856,4751,3002,Tag0,unknown
1499247406706,0,-55,-1.20849609375E-5,35,77,61,64121,89362,6561,3142,1920,3856,4751,3002,Tag0,unknown
1499247406707,0,-37,-8.1298828125E-6,35,77,61,64121,89362,6561,3142,1920,3856,4751,3002,Tag0,unknown
1499247406707,0,-12,-2.63671875E-6,35,77,61,64121,89362,6561,3142,1920,3856,4751,3002,Tag0,unknown
1499247406707,0,258,5.6689453125000004E-5,35,77,61,64121,89362,6561,3142,1920,3856,4751,3002,Tag0,unknown
1499247406708,0,260,5.712890625E-5,35,77,61,64121,89362,6561,3142,1920,3856,4751,3002,Tag0,unknown
1499247406708,0,-8,-1.7578125E-6,35,77,61,64121,89362,6561,3142,1920,3856,4751,3002,Tag0,unknown
1499247406708,0,-41,-9.008789062499999E-6,35,77,61,64121,89362,6561,3142,1920,3856,4751,3002,Tag0,unknown
1499247406708,0,-67,-1.4721679687500002E-5,35,77,61,64121,89362,6561,3142,1920,3856,4751,3002,Tag0,unknown
1499247406709,0,-48,-1.0546875E-5,35,77,61,64121,89362,6561,3142,1920,3856,4751,3002,Tag0,unknown
1499247406709,0,-23,-5.0537109375E-6,35,77,61,64121,89362,6561,3142,1920,3856,4751,3002,Tag0,unknown
1499247406709,0,-7,-1.5380859375E-6,35,77,61,64121,89362,6561,3142,1920,3856,4751,3002,Tag0,unknown
1499247406710,0,-4,-8.7890625E-7,35,77,61,64121,89362,6561,3142,1920,3856,4751,3002,Tag0,unknown
1499247406710,0,-26,-5.712890625E-6,35,77,61,64121,89362,6561,3142,1920,3856,4751,3002,Tag0,unknown
1499247406711,0,-77,-1.69189453125E-5,35,77,61,64121,89362,6561,3142,1920,3856,4751,3002,Tag0,unknown
1499247406711,0,-120,-2.63671875E-5,35,77,61,64121,89362,6561,3142,1920,3856,4751,3002,Tag0,unknown
1499247406711,0,-109,-2.39501953125E-5,35,77,61,64121,89362,6561,3142,1920,3856,4751,3002,Tag0,unknown
1499247406711,0,-79,-1.7358398437500003E-5,35,77,61,64121,89362,6561,3142,1920,3856,4751,3002,Tag0,unknown
1499247406712,0,-55,-1.20849609375E-5,35,77,61,64121,89362,6561,3142,1920,3856,4751,3002,Tag0,unknown
1499247406712,0,-55,-1.20849609375E-5,35,77,61,64121,89362,6561,3142,1920,3856,4751,3002,Tag0,unknown
1499247406712,0,-76,-1.669921875E-5,35,77,61,64121,89362,6561,3142,1920,3856,4751,3002,Tag0,unknown
1499247406713,0,-76,-1.669921875E-5,35,77,61,64121,89362,6561,3142,1920,3856,4751,3002,Tag0,unknown
1499247406713,0,-77,-1.69189453125E-5,35,77,61,64121,89362,6561,3142,1920,3856,4751,3002,Tag0,unknown
1499247406713,0,-86,-1.8896484375000003E-5,35,77,61,64121,89362,6561,3142,1920,3856,4751,3002,Tag0,unknown
1499247406713,0,-78,-1.7138671875E-5,35,77,61,64121,89362,6561,3142,1920,3856,4751,3002,Tag0,unknown
1499247406714,0,-73,-1.6040039062500002E-5,35,77,61,64121,89362,6561,3142,1920,3856,4751,3002,Tag0,unknown
1499247406714,0,-87,-1.91162109375E-5,35,77,61,64121,89362,6561,3142,1920,3856,4751,3002,Tag0,unknown
1499247406714,0,-111,-2.43896484375E-5,35,77,61,64121,89362,6561,3142,1920,3856,4751,3002,Tag0,unknown
1499247406715,0,-128,-2.8125E-5,35,77,61,64121,89362,6561,3142,1920,3856,4751,3002,Tag0,unknown
1499247406715,0,119,2.6147460937500004E-5,35,77,61,64121,89362,6561,3142,1920,3856,4751,3002,Tag0,unknown
1499247406715,0,98,2.1533203125E-5,35,77,61,64121,89362,6561,3142,1920,3856,4751,3002,Tag0,unknown
1499247406716,0,71,1.56005859375E-5,35,77,61,64121,89362,6561,3142,1920,3856,4751,3002,Tag0,unknown
1499247406716,0,69,1.51611328125E-5,35,77,61,64121,89362,6561,3142,1920,3856,4751,3002,Tag0,unknown
1499247406716,0,101,2.2192382812500002E-5,35,77,61,64121,89362,6561,3142,1920,3856,4751,3002,Tag0,unknown
1499247406717,0,-128,-2.8125E-5,35,77,61,64121,89362,6561,3142,1920,3856,4751,3002,Tag0,unknown
1499247406717,0,-128,-2.8125E-5,35,77,61,64121,89362,6561,3142,1920,3856,4751,3002,Tag0,unknown
1499247406717,0,-116,-2.548828125E-5,35,77,61,64121,89362,6561,3142,1920,3856,4751,3002,Tag0,unknown
1499247406717,0,-89,-1.95556640625E-5,35,77,61,64121,89362,6561,3142,1920,3856,4751,3002,Tag0,unknown
1499247406718,0,-91,-1.99951171875E-5,35,77,61,64121,89362,6561,3142,1920,3856,4751,3002,Tag0,unknown
1499247406718,0,-109,-2.39501953125E-5,35,77,61,64121,89362,6561,3142,1920,3856,4751,3002,Tag0,unknown
1499247406718,0,-126,-2.7685546875E-5,35,77,61,64121,89362,6561,3142,1920,3856,4751,3002,Tag0,unknown
1499247406719,0,118,2.5927734375E-5,35,77,61,64121,89362,6561,3142,1920,3856,4751,3002,Tag0,unknown
1499247406719,0,114,2.5048828125000003E-5,35,77,61,64121,89362,6561,3142,1920,3856,4751,3002,Tag0,unknown
1499247406719,0,118,2.5927734375E-5,35,77,61,64121,89362,6561,3142,1920,3856,4751,3002,Tag0,unknown
1499247406720,0,-126,-2.7685546875E-5,35,77,61,64121,89362,6561,3142,1920,3856,4751,3002,Tag0,unknown
1499247406720,0,124,2.724609375E-5,35,77,61,64121,89362,6561,3142,1920,3856,4751,3002,Tag0,unknown
1499247406720,0,91,1.99951171875E-5,35,77,61,64121,89362,6561,3142,1920,3856,4751,3002,Tag0,unknown
1499247406721,0,67,1.4721679687500002E-5,35,77,61,64121,89362,6561,3142,1920,3856,4751,3002,Tag0,unknown
1499247406721,0,65,1.42822265625E-5,35,77,61,64121,89362,6561,3142,1920,3856,4751,3002,Tag0,unknown
1499247406721,0,61,1.34033203125E-5,35,77,61,64121,89362,6561,3142,1920,3856,4751,3002,Tag0,unknown
1499247406721,0,59,1.29638671875E-5,35,77,61,64121,89362,6561,3142,1920,3856,4751,3002,Tag0,unknown
1499247406722,0,70,1.5380859375E-5,35,77,61,64121,89362,6561,3142,1920,3856,4751,3002,Tag0,unknown
1499247406722,0,81,1.77978515625E-5,35,77,61,64121,89362,6561,3142,1920,3856,4751,3002,Tag0,unknown
1499247406722,0,87,1.91162109375E-5,35,77,61,64121,89362,6561,3142,1920,3856,4751,3002,Tag0,unknown
1499247406723,0,76,1.669921875E-5,35,77,61,64121,89362,6561,3142,1920,3856,4751,3002,Tag0,unknown
1499247406723,0,48,1.0546875E-5,35,77,61,64121,89362,6561,3142,1920,3856,4751,3002,Tag0,unknown
1499247406723,0,32,7.03125E-6,35,77,61,64121,89362,6561,3142,1920,3856,4751,3002,Tag0,unknown
1499247406723,0,51,1.1206054687499999E-5,35,77,61,64121,89362,6561,3142,1920,3856,4751,3002,Tag0,unknown
1499247406724,0,64,1.40625E-5,35,77,61,64121,89362,6561,3142,1920,3856,4751,3002,Tag0,unknown
1499247406724,0,60,1.318359375E-5,35,77,61,64121,89362,6561,3142,1920,3856,4751,3002,Tag0,unknown
1499247406724,0,53,1.1645507812500002E-5,35,77,61,64121,89362,6561,3142,1920,3856,4751,3002,Tag0,unknown
1499247406725,0,37,8.1298828125E-6,35,77,61,64121,89362,6561,3142,1920,3856,4751,3002,Tag0,unknown
1499247406725,0,7,1.5380859375E-6,35,77,61,64121,89362,6561,3142,1920,3856,4751,3002,Tag0,unknown
1499247406726,0,-267,-5.86669921875E-5,35,77,61,64121,89362,6561,3142,1920,3856,4751,3002,Tag0,unknown
1499247406726,0,-257,-5.64697265625E-5,35,77,61,64121,89362,6561,3142,1920,3856,4751,3002,Tag0,unknown
1499247406726,0,44,9.66796875E-6,35,77,61,64121,89362,6561,3142,1920,3856,4751,3002,Tag0,unknown
1499247406726,0,99,2.1752929687500003E-5,35,77,61,64121,89362,6561,3142,1920,3856,4751,3002,Tag0,unknown
1499247406727,0,102,2.2412109374999998E-5,35,77,61,64121,89362,6561,3142,1920,3856,4751,3002,Tag0,unknown
1499247406727,0,68,1.4941406250000001E-5,35,77,61,64121,89362,6561,3142,1920,3856,4751,3002,Tag0,unknown
1499247406727,0,52,1.142578125E-5,35,77,61,64121,89362,6561,3142,1920,3856,4751,3002,Tag0,unknown
1499247406728,0,74,1.6259765625E-5,35,77,61,64121,89362,6561,3142,1920,3856,4751,3002,Tag0,unknown
1499247406728,0,98,2.1533203125E-5,35,77,61,64121,89362,6561,3142,1920,3856,4751,3002,Tag0,unknown
1499247406728,0,92,2.021484375E-5,35,77,61,64121,89362,6561,3142,1920,3856,4751,3002,Tag0,unknown
1499247406729,0,81,1.77978515625E-5,35,77,61,64121,89362,6561,3142,1920,3856,4751,3002,Tag0,unknown
1499247406729,0,83,1.82373046875E-5,35,77,61,64121,89362,6561,3142,1920,3856,4751,3002,Tag0,unknown
1499247406729,0,88,1.93359375E-5,35,77,61,64121,89362,6561,3142,1920,3856,4751,3002,Tag0,unknown
1499247406729,0,69,1.51611328125E-5,35,77,61,64121,89362,6561,3142,1920,3856,4751,3002,Tag0,unknown
1499247406730,0,38,8.349609375E-6,35,77,61,64121,89362,6561,3142,1920,3856,4751,3002,Tag0,unknown
1499247406736,0,37,8.1298828125E-6,35,77,61,64121,89362,6561,3142,1920,3856,4751,3002,Tag0,unknown
1499247406760,0,54,1.1865234375000001E-5,35,77,61,64121,89362,6561,3142,1920,3856,4751,3002,Tag0,unknown
1499247406761,0,82,1.8017578124999998E-5,35,77,61,64121,89362,6561,3142,1920,3856,4751,3002,Tag0,unknown
1499247406762,0,84,1.8457031250000004E-5,35,77,61,64121,89362,6561,3142,1920,3856,4751,3002,Tag0,unknown
1499247406762,0,53,1.1645507812500002E-5,35,77,61,64121,89362,6561,3142,1920,3856,4751,3002,Tag0,unknown
1499247406763,0,37,8.1298828125E-6,35,77,61,64121,89362,6561,3142,1920,3856,4751,3002,Tag0,unknown
1499247406763,0,41,9.008789062499999E-6,35,77,61,64121,89362,6561,3142,1920,3856,4751,3002,Tag0,unknown
1499247406763,0,41,9.008789062499999E-6,35,77,61,64121,89362,6561,3142,1920,3856,4751,3002,Tag0,unknown
1499247406764,0,36,7.91015625E-6,35,77,61,64121,89362,6561,3142,1920,3856,4751,3002,Tag0,unknown
1499247406764,0,37,8.1298828125E-6,35,77,61,64121,89362,6561,3142,1920,3856,4751,3002,Tag0,unknown
1499247406764,0,42,9.228515625000002E-6,35,77,61,64121,89362,6561,3142,1920,3856,4751,3002,Tag0,unknown
1499247406764,0,44,9.66796875E-6,35,77,61,64121,89362,6561,3142,1920,3856,4751,3002,Tag0,unknown
1499247406765,0,35,7.6904296875E-6,35,77,61,64121,89362,6561,3142,1920,3856,4751,3002,Tag0,unknown
1499247406765,0,26,5.712890625E-6,35,77,61,64121,89362,6561,3142,1920,3856,4751,3002,Tag0,unknown
1499247406766,0,41,9.008789062499999E-6,35,77,61,64121,89362,6561,3142,1920,3856,4751,3002,Tag0,unknown
1499247406766,0,69,1.51611328125E-5,35,77,61,64121,89362,6561,3142,1920,3856,4751,3002,Tag0,unknown
1499247406767,0,73,1.6040039062500002E-5,35,77,61,64121,89362,6561,3142,1920,3856,4751,3002,Tag0,unknown
1499247406768,0,50,1.0986328125E-5,35,77,61,64121,89362,6561,3142,1920,3856,4751,3002,Tag0,unknown
1499247406768,0,13,2.8564453125E-6,35,77,61,64121,89362,6561,3142,1920,3856,4751,3002,Tag0,unknown
1499247406769,0,-262,-5.7568359375E-5,35,77,61,64121,89362,6561,3142,1920,3856,4751,3002,Tag0,unknown
1499247406769,0,3,6.591796875E-7,35,77,61,64121,89362,6561,3142,1920,3856,4751,3002,Tag0,unknown
1499247406769,0,20,4.39453125E-6,35,77,61,64121,89362,6561,3142,1920,3856,4751,3002,Tag0,unknown
1499247406770,0,36,7.91015625E-6,35,77,61,64121,89362,6561,3142,1920,3856,4751,3002,Tag0,unknown
1499247406771,0,51,1.1206054687499999E-5,35,77,61,64121,89362,6561,3142,1920,3856,4751,3002,Tag0,unknown
1499247406771,0,51,1.1206054687499999E-5,35,77,61,64121,89362,6561,3142,1920,3856,4751,3002,Tag0,unknown
1499247406772,0,53,1.1645507812500002E-5,35,77,61,64121,89362,6561,3142,1920,3856,4751,3002,Tag0,unknown
1499247406772,0,70,1.5380859375E-5,35,77,61,64121,89362,6561,3142,1920,3856,4751,3002,Tag0,unknown
1499247406772,0,60,1.318359375E-5,35,77,61,64121,89362,6561,3142,1920,3856,4751,3002,Tag0,unknown
1499247406773,0,58,1.2744140625E-5,35,77,61,64121,89362,6561,3142,1920,3856,4751,3002,Tag0,unknown
1499247406773,0,59,1.29638671875E-5,35,77,61,64121,89362,6561,3142,1920,3856,4751,3002,Tag0,unknown
1499247406773,0,45,9.8876953125E-6,35,77,61,64121,89362,6561,3142,1920,3856,4751,3002,Tag0,unknown
1499247406774,0,38,8.349609375E-6,35,77,61,64121,89362,6561,3142,1920,3856,4751,3002,Tag0,unknown
1499247407282,0,19,4.1748046875E-6,35,77,61,64121,89362,6561,3142,1920,3856,4751,3002,Tag0,unknown
1499247407283,0,5,1.0986328125E-6,35,77,61,64121,89362,6561,3142,1920,3856,4751,3002,Tag0,unknown
1499247407283,0,11,2.4169921875E-6,35,77,61,64121,89362,6561,3142,1920,3856,4751,3002,Tag0,unknown
1499247407284,0,18,3.955078125E-6,35,77,61,64121,89362,6561,3142,1920,3856,4751,3002,Tag0,unknown
1499247407284,0,21,4.614257812500001E-6,35,77,61,64121,89362,6561,3142,1920,3856,4751,3002,Tag0,unknown
1499247407284,0,22,4.833984375E-6,35,77,61,64121,89362,6561,3142,1920,3856,4751,3002,Tag0,unknown
1499247407284,0,12,2.63671875E-6,35,77,61,64121,89362,6561,3142,1920,3856,4751,3002,Tag0,unknown
1499247407285,0,6,1.318359375E-6,35,77,61,64121,89362,6561,3142,1920,3856,4751,3002,Tag0,unknown
1499247407285,0,24,5.2734375E-6,35,77,61,64121,89362,6561,3142,1920,3856,4751,3002,Tag0,unknown
1499247407285,0,43,9.448242187500001E-6,35,77,61,64121,89362,6561,3142,1920,3856,4751,3002,Tag0,unknown
1499247407285,0,33,7.2509765625E-6,35,77,61,64121,89362,6561,3142,1920,3856,4751,3002,Tag0,unknown
1499247407286,0,3,6.591796875E-7,35,77,61,64121,89362,6561,3142,1920,3856,4751,3002,Tag0,unknown
1499247407286,0,-263,-5.7788085937500005E-5,35,77,61,64121,89362,6561,3142,1920,3856,4751,3002,Tag0,unknown
1499247407286,0,-261,-5.73486328125E-5,35,77,61,64121,89362,6561,3142,1920,3856,4751,3002,Tag0,unknown
1499247407287,0,-259,-5.69091796875E-5,35,77,61,64121,89362,6561,3142,1920,3856,4751,3002,Tag0,unknown
1499247407287,0,2,4.39453125E-7,35,77,61,64121,89362,6561,3142,1920,3856,4751,3002,Tag0,unknown
1499247407287,0,8,1.7578125E-6,35,77,61,64121,89362,6561,3142,1920,3856,4751,3002,Tag0,unknown
1499247407287,0,23,5.0537109375E-6,35,77,61,64121,89362,6561,3142,1920,3856,4751,3002,Tag0,unknown
1499247407287,0,49,1.07666015625E-5,35,77,61,64121,89362,6561,3142,1920,3856,4751,3002,Tag0,unknown
1499247407288,0,39,8.5693359375E-6,35,77,61,64121,89362,6561,3142,1920,3856,4751,3002,Tag0,unknown
1499247407288,0,3,6.591796875E-7,35,77,61,64121,89362,6561,3142,1920,3856,4751,3002,Tag0,unknown
1499247407288,0,-279,-6.13037109375E-5,35,77,61,64121,89362,6561,3142,1920,3856,4751,3002,Tag0,unknown
1499247407288,0,-283,-6.218261718750001E-5,35,77,61,64121,89362,6561,3142,1920,3856,4751,3002,Tag0,unknown
1499247407290,0,-289,-6.35009765625E-5,35,77,61,64121,89362,6561,3142,1920,3856,4751,3002,Tag0,unknown
1499247407290,0,-296,-6.50390625E-5,35,77,61,64121,89362,6561,3142,1920,3856,4751,3002,Tag0,unknown
1499247407290,0,-301,-6.613769531250001E-5,35,77,61,64121,89362,6561,3142,1920,3856,4751,3002,Tag0,unknown
1499247407290,0,-321,-7.053222656250001E-5,35,77,61,64121,89362,6561,3142,1920,3856,4751,3002,Tag0,unknown
1499247407290,0,-345,-7.58056640625E-5,35,77,61,64121,89362,6561,3142,1920,3856,4751,3002,Tag0,unknown
1499247407291,0,-370,-8.1298828125E-5,35,77,61,64121,89362,6561,3142,1920,3856,4751,3002,Tag0,unknown
1499247407291,0,-364,-7.998046875E-5,35,77,61,64121,89362,6561,3142,1920,3856,4751,3002,Tag0,unknown
1499247407291,0,-350,-7.6904296875E-5,35,77,61,64121,89362,6561,3142,1920,3856,4751,3002,Tag0,unknown
1499247407291,0,-339,-7.448730468750001E-5,35,77,61,64121,89362,6561,3142,1920,3856,4751,3002,Tag0,unknown
1499247407291,0,-315,-6.92138671875E-5,35,77,61,64121,89362,6561,3142,1920,3856,4751,3002,Tag0,unknown
1499247407292,0,-306,-6.723632812500001E-5,35,77,61,64121,89362,6561,3142,1920,3856,4751,3002,Tag0,unknown
1499247407292,0,-328,-7.207031249999999E-5,35,77,61,64121,89362,6561,3142,1920,3856,4751,3002,Tag0,unknown
1499247407292,0,-354,-7.778320312500001E-5,35,77,61,64121,89362,6561,3142,1920,3856,4751,3002,Tag0,unknown
1499247407292,0,-361,-7.93212890625E-5,35,77,61,64121,89362,6561,3142,1920,3856,4751,3002,Tag0,unknown
1499247407292,0,-348,-7.646484375E-5,35,77,61,64121,89362,6561,3142,1920,3856,4751,3002,Tag0,unknown
1499247407292,0,-318,-6.9873046875E-5,35,77,61,64121,89362,6561,3142,1920,3856,4751,3002,Tag0,unknown
1499247407293,0,-280,-6.15234375E-5,35,77,61,64121,89362,6561,3142,1920,3856,4751,3002,Tag0,unknown
1499247407293,0,-266,-5.8447265625E-5,35,77,61,64121,89362,6561,3142,1920,3856,4751,3002,Tag0,unknown
1499247407293,0,-280,-6.15234375E-5,35,77,61,64121,89362,6561,3142,1920,3856,4751,3002,Tag0,unknown
1499247407293,0,-278,-6.108398437500001E-5,35,77,61,64121,89362,6561,3142,1920,3856,4751,3002,Tag0,unknown
1499247407294,0,-263,-5.7788085937500005E-5,35,77,61,64121,89362,6561,3142,1920,3856,4751,3002,Tag0,unknown
1499247407294,0,-257,-5.64697265625E-5,35,77,61,64121,89362,6561,3142,1920,3856,4751,3002,Tag0,unknown
1499247407294,0,3,6.591796875E-7,35,77,61,64121,89362,6561,3142,1920,3856,4751,3002,Tag0,unknown
1499247407294,0,27,5.9326171875000005E-6,35,77,61,64121,89362,6561,3142,1920,3856,4751,3002,Tag0,unknown
1499247407306,0,48,1.0546875E-5,20,51,61,933906,1082894,16747474,29198,16746220,16751304,27613,6510,Tag0,unknown
1499247407307,0,50,1.0986328125E-5,20,51,61,933906,1082894,16747474,29198,16746220,16751304,27613,6510,Tag0,unknown
1499247407307,0,40,8.7890625E-6,20,51,61,933906,1082894,16747474,29198,16746220,16751304,27613,6510,Tag0,unknown
1499247407307,0,37,8.1298828125E-6,20,51,61,933906,1082894,16747474,29198,16746220,16751304,27613,6510,Tag0,unknown
1499247407307,0,25,5.4931640625E-6,20,51,61,933906,1082894,16747474,29198,16746220,16751304,27613,6510,Tag0,unknown
1499247407307,0,27,5.9326171875000005E-6,20,51,61,933906,1082894,16747474,29198,16746220,16751304,27613,6510,Tag0,unknown
1499247407308,0,43,9.448242187500001E-6,20,51,61,933906,1082894,16747474,29198,16746220,16751304,27613,6510,Tag0,unknown
1499247407308,0,52,1.142578125E-5,20,51,61,933906,1082894,16747474,29198,16746220,16751304,27613,6510,Tag0,unknown
1499247407308,0,51,1.1206054687499999E-5,20,51,61,933906,1082894,16747474,29198,16746220,16751304,27613,6510,Tag0,unknown
1499247407308,0,45,9.8876953125E-6,20,51,61,933906,1082894,16747474,29198,16746220,16751304,27613,6510,Tag0,unknown
1499247407308,0,45,9.8876953125E-6,20,51,61,933906,1082894,16747474,29198,16746220,16751304,27613,6510,Tag0,unknown
1499247407308,0,41,9.008789062499999E-6,20,51,61,933906,1082894,16747474,29198,16746220,16751304,27613,6510,Tag0,unknown
1499247407309,0,12,2.63671875E-6,20,51,61,933906,1082894,16747474,29198,16746220,16751304,27613,6510,Tag0,unknown
1499247407309,0,13,2.8564453125E-6,20,51,61,933906,1082894,16747474,29198,16746220,16751304,27613,6510,Tag0,unknown
1499247407309,0,43,9.448242187500001E-6,20,51,61,933906,1082894,16747474,29198,16746220,16751304,27613,6510,Tag0,unknown
1499247407309,0,52,1.142578125E-5,20,51,61,933906,1082894,16747474,29198,16746220,16751304,27613,6510,Tag0,unknown
1499247407310,0,37,8.1298828125E-6,20,51,61,933906,1082894,16747474,29198,16746220,16751304,27613,6510,Tag0,unknown
1499247407310,0,51,1.1206054687499999E-5,20,51,61,933906,1082894,16747474,29198,16746220,16751304,27613,6510,Tag0,unknown
1499247407310,0,70,1.5380859375E-5,20,51,61,933906,1082894,16747474,29198,16746220,16751304,27613,6510,Tag0,unknown
1499247407310,0,75,1.64794921875E-5,20,51,61,933906,1082894,16747474,29198,16746220,16751304,27613,6510,Tag0,unknown
1499247407310,0,67,1.4721679687500002E-5,20,51,61,933906,1082894,16747474,29198,16746220,16751304,27613,6510,Tag0,unknown
1499247407310,0,74,1.6259765625E-5,20,51,61,933906,1082894,16747474,29198,16746220,16751304,27613,6510,Tag0,unknown
1499247407311,0,97,2.13134765625E-5,20,51,61,933906,1082894,16747474,29198,16746220,16751304,27613,6510,Tag0,unknown
1499247407311,0,-117,-2.5708007812499998E-5,20,51,61,933906,1082894,16747474,29198,16746220,16751304,27613,6510,Tag0,unknown
1499247407311,0,-55,-1.20849609375E-5,20,51,61,933906,1082894,16747474,29198,16746220,16751304,27613,6510,Tag0,unknown
1499247407311,0,262,5.7568359375E-5,20,51,61,933906,1082894,16747474,29198,16746220,16751304,27613,6510,Tag0,unknown
1499247407311,0,298,6.5478515625E-5,20,51,61,933906,1082894,16747474,29198,16746220,16751304,27613,6510,Tag0,unknown
1499247407311,0,282,6.1962890625E-5,20,51,61,933906,1082894,16747474,29198,16746220,16751304,27613,6510,Tag0,unknown
1499247407312,0,289,6.35009765625E-5,20,51,61,933906,1082894,16747474,29198,16746220,16751304,27613,6510,Tag0,unknown
1499247407312,0,342,7.5146484375E-5,20,51,61,933906,1082894,16747474,29198,16746220,16751304,27613,6510,Tag0,unknown
1499247407312,0,380,8.349609375E-5,20,51,61,933906,1082894,16747474,29198,16746220,16751304,27613,6510,Tag0,unknown
1499247407312,0,381,8.371582031250001E-5,20,51,61,933906,1082894,16747474,29198,16746220,16751304,27613,6510,Tag0,unknown
1499247407312,0,355,7.80029296875E-5,20,51,61,933906,1082894,16747474,29198,16746220,16751304,27613,6510,Tag0,unknown
1499247407312,0,329,7.229003906250001E-5,20,51,61,933906,1082894,16747474,29198,16746220,16751304,27613,6510,Tag0,unknown
1499247407313,0,316,6.943359375000001E-5,20,51,61,933906,1082894,16747474,29198,16746220,16751304,27613,6510,Tag0,unknown
1499247407313,0,292,6.416015625000001E-5,20,51,61,933906,1082894,16747474,29198,16746220,16751304,27613,6510,Tag0,unknown
1499247407313,0,272,5.9765625000000004E-5,20,51,61,933906,1082894,16747474,29198,16746220,16751304,27613,6510,Tag0,unknown
1499247407313,0,273,5.998535156250001E-5,20,51,61,933906,1082894,16747474,29198,16746220,16751304,27613,6510,Tag0,unknown
1499247407313,0,266,5.8447265625E-5,20,51,61,933906,1082894,16747474,29198,16746220,16751304,27613,6510,Tag0,unknown
1499247407313,0,262,5.7568359375E-5,20,51,61,933906,1082894,16747474,29198,16746220,16751304,27613,6510,Tag0,unknown
1499247407314,0,264,5.80078125E-5,20,51,61,933906,1082894,16747474,29198,16746220,16751304,27613,6510,Tag0,unknown
1499247407314,0,276,6.064453125E-5,20,51,61,933906,1082894,16747474,29198,16746220,16751304,27613,6510,Tag0,unknown
1499247407314,0,277,6.0864257812500005E-5,20,51,61,933906,1082894,16747474,29198,16746220,16751304,27613,6510,Tag0,unknown
1499247407314,0,260,5.712890625E-5,20,51,61,933906,1082894,16747474,29198,16746220,16751304,27613,6510,Tag0,unknown
1499247407314,0,-22,-4.833984375E-6,20,51,61,933906,1082894,16747474,29198,16746220,16751304,27613,6510,Tag0,unknown
1499247407316,0,-20,-4.39453125E-6,20,51,46,933906,1082894,16747474,29198,16746220,16751304,27613,6510,Tag0,unknown
1499247407317,0,278,6.108398437500001E-5,20,51,46,933906,1082894,16747474,29198,16746220,16751304,27613,6510,Tag0,unknown
1499247407317,0,284,6.240234375E-5,20,51,46,933906,1082894,16747474,29198,16746220,16751304,27613,6510,Tag0,unknown
1499247407318,0,-27,-5.9326171875000005E-6,20,51,46,933906,1082894,16747474,29198,16746220,16751304,27613,6510,Tag0,unknown
1499247407318,0,-80,-1.7578125E-5,20,51,46,933906,1082894,16747474,29198,16746220,16751304,27613,6510,Tag0,unknown
1499247407318,0,-116,-2.548828125E-5,20,51,46,933906,1082894,16747474,29198,16746220,16751304,27613,6510,Tag0,unknown
1499247407318,0,101,2.2192382812500002E-5,20,51,46,933906,1082894,16747474,29198,16746220,16751304,27613,6510,Tag0,unknown
1499247407318,0,44,9.66796875E-6,20,51,46,933906,1082894,16747474,29198,16746220,16751304,27613,6510,Tag0,unknown
1499247407319,0,10,2.197265625E-6,20,51,46,933906,1082894,16747474,29198,16746220,16751304,27613,6510,Tag0,unknown
1499247407319,0,-295,-6.48193359375E-5,20,51,46,933906,1082894,16747474,29198,16746220,16751304,27613,6510,Tag0,unknown
1499247407319,0,-378,-8.3056640625E-5,20,51,46,933906,1082894,16747474,29198,16746220,16751304,27613,6510,Tag0,unknown
1499247407319,0,-170,-3.7353515625E-5,20,51,46,933906,1082894,16747474,29198,16746220,16751304,27613,6510,Tag0,unknown
1499247407319,0,-170,-3.7353515625E-5,20,51,46,933906,1082894,16747474,29198,16746220,16751304,27613,6510,Tag0,unknown
1499247407319,0,-165,-3.62548828125E-5,20,51,46,933906,1082894,16747474,29198,16746220,16751304,27613,6510,Tag0,unknown
1499247407320,0,-168,-3.691406250000001E-5,20,51,46,933906,1082894,16747474,29198,16746220,16751304,27613,6510,Tag0,unknown
1499247407320,0,-382,-8.3935546875E-5,20,51,46,933906,1082894,16747474,29198,16746220,16751304,27613,6510,Tag0,unknown
1499247407320,0,-310,-6.8115234375E-5,20,51,46,933906,1082894,16747474,29198,16746220,16751304,27613,6510,Tag0,unknown
1499247407320,0,7,1.5380859375E-6,20,51,46,933906,1082894,16747474,29198,16746220,16751304,27613,6510,Tag0,unknown
1499247407320,0,51,1.1206054687499999E-5,20,51,46,933906,1082894,16747474,29198,16746220,16751304,27613,6510,Tag0,unknown
1499247407320,0,76,1.669921875E-5,20,51,46,933906,1082894,16747474,29198,16746220,16751304,27613,6510,Tag0,unknown
1499247407321,0,71,1.56005859375E-5,20,51,46,933906,1082894,16747474,29198,16746220,16751304,27613,6510,Tag0,unknown
1499247407321,0,58,1.2744140625E-5,20,51,46,933906,1082894,16747474,29198,16746220,16751304,27613,6510,Tag0,unknown
1499247407321,0,82,1.8017578124999998E-5,20,51,46,933906,1082894,16747474,29198,16746220,16751304,27613,6510,Tag0,unknown
1499247407321,0,-128,-2.8125E-5,20,51,46,933906,1082894,16747474,29198,16746220,16751304,27613,6510,Tag0,unknown
1499247407321,0,-102,-2.2412109374999998E-5,20,51,46,933906,1082894,16747474,29198,16746220,16751304,27613,6510,Tag0,unknown
1499247407321,0,-85,-1.86767578125E-5,20,51,46,933906,1082894,16747474,29198,16746220,16751304,27613,6510,Tag0,unknown
1499247407322,0,-79,-1.7358398437500003E-5,20,51,46,933906,1082894,16747474,29198,16746220,16751304,27613,6510,Tag0,unknown
1499247407322,0,-106,-2.3291015625000003E-5,20,51,46,933906,1082894,16747474,29198,16746220,16751304,27613,6510,Tag0,unknown
1499247407322,0,113,2.48291015625E-5,20,51,46,933906,1082894,16747474,29198,16746220,16751304,27613,6510,Tag0,unknown
1499247407322,0,81,1.77978515625E-5,20,51,46,933906,1082894,16747474,29198,16746220,16751304,27613,6510,Tag0,unknown
1499247407322,0,67,1.4721679687500002E-5,20,51,46,933906,1082894,16747474,29198,16746220,16751304,27613,6510,Tag0,unknown
1499247407323,0,81,1.77978515625E-5,20,51,46,933906,1082894,16747474,29198,16746220,16751304,27613,6510,Tag0,unknown
1499247407323,0,88,1.93359375E-5,20,51,46,933906,1082894,16747474,29198,16746220,16751304,27613,6510,Tag0,unknown
1499247407323,0,84,1.8457031250000004E-5,20,51,46,933906,1082894,16747474,29198,16746220,16751304,27613,6510,Tag0,unknown
1499247407323,0,90,1.9775390625E-5,20,51,46,933906,1082894,16747474,29198,16746220,16751304,27613,6510,Tag0,unknown
1499247407323,0,106,2.3291015625000003E-5,20,51,46,933906,1082894,16747474,29198,16746220,16751304,27613,6510,Tag0,unknown
1499247407323,0,100,2.197265625E-5,20,51,46,933906,1082894,16747474,29198,16746220,16751304,27613,6510,Tag0,unknown
1499247407324,0,101,2.2192382812500002E-5,20,51,46,933906,1082894,16747474,29198,16746220,16751304,27613,6510,Tag0,unknown
1499247407324,0,-124,-2.724609375E-5,20,51,46,933906,1082894,16747474,29198,16746220,16751304,27613,6510,Tag0,unknown
1499247407324,0,-87,-1.91162109375E-5,20,51,46,933906,1082894,16747474,29198,16746220,16751304,27613,6510,Tag0,unknown
1499247407324,0,-73,-1.6040039062500002E-5,20,51,46,933906,1082894,16747474,29198,16746220,16751304,27613,6510,Tag0,unknown
1499247407325,0,-126,-2.7685546875E-5,20,51,46,933906,1082894,16747474,29198,16746220,16751304,27613,6510,Tag0,unknown
1499247407325,0,71,1.56005859375E-5,20,51,46,933906,1082894,16747474,29198,16746220,16751304,27613,6510,Tag0,unknown
1499247407325,0,86,1.8896484375000003E-5,20,51,46,933906,1082894,16747474,29198,16746220,16751304,27613,6510,Tag0,unknown
1499247407326,0,-116,-2.548828125E-5,20,51,46,933906,1082894,16747474,29198,16746220,16751304,27613,6510,Tag0,unknown
1499247407326,0,-110,-2.4169921875E-5,20,51,46,933906,1082894,16747474,29198,16746220,16751304,27613,6510,Tag0,unknown
1499247407326,0,114,2.5048828125000003E-5,20,51,46,933906,1082894,16747474,29198,16746220,16751304,27613,6510,Tag0,unknown
1499247407326,0,104,2.28515625E-5,20,51,46,933906,1082894,16747474,29198,16746220,16751304,27613,6510,Tag0,unknown
1499247407326,0,114,2.5048828125000003E-5,20,51,46,933906,1082894,16747474,29198,16746220,16751304,27613,6510,Tag0,unknown
1499247407327,0,112,2.4609375E-5,20,51,46,933906,1082894,16747474,29198,16746220,16751304,27613,6510,Tag0,unknown
1499247407327,0,124,2.724609375E-5,20,51,46,933906,1082894,16747474,29198,16746220,16751304,27613,6510,Tag0,unknown
1499247407327,0,-112,-2.4609375E-5,20,51,46,933906,1082894,16747474,29198,16746220,16751304,27613,6510,Tag0,unknown
1499247407327,0,-103,-2.26318359375E-5,20,51,46,933906,1082894,16747474,29198,16746220,16751304,27613,6510,Tag0,unknown
1499247407327,0,-112,-2.4609375E-5,20,51,46,933906,1082894,16747474,29198,16746220,16751304,27613,6510,Tag0,unknown
1499247407327,0,116,2.548828125E-5,20,51,46,933906,1082894,16747474,29198,16746220,16751304,27613,6510,Tag0,unknown
1499247407328,0,116,2.548828125E-5,20,51,46,933906,1082894,16747474,29198,16746220,16751304,27613,6510,Tag0,unknown
1499247407328,0,-120,-2.63671875E-5,20,51,46,933906,1082894,16747474,29198,16746220,16751304,27613,6510,Tag0,unknown
1499247407328,0,-125,-2.74658203125E-5,20,51,46,933906,1082894,16747474,29198,16746220,16751304,27613,6510,Tag0,unknown
1499247407328,0,85,1.86767578125E-5,20,51,46,933906,1082894,16747474,29198,16746220,16751304,27613,6510,Tag0,unknown
1499247407328,0,55,1.20849609375E-5,20,51,46,933906,1082894,16747474,29198,16746220,16751304,27613,6510,Tag0,unknown
1499247407329,0,48,1.0546875E-5,20,51,46,933906,1082894,16747474,29198,16746220,16751304,27613,6510,Tag0,unknown
1499247407329,0,55,1.20849609375E-5,20,51,46,933906,1082894,16747474,29198,16746220,16751304,27613,6510,Tag0,unknown
1499247407329,0,65,1.42822265625E-5,20,51,46,933906,1082894,16747474,29198,16746220,16751304,27613,6510,Tag0,unknown
1499247407329,0,70,1.5380859375E-5,20,51,46,933906,1082894,16747474,29198,16746220,16751304,27613,6510,Tag0,unknown
1499247407329,0,69,1.51611328125E-5,20,51,46,933906,1082894,16747474,29198,16746220,16751304,27613,6510,Tag0,unknown
1499247407329,0,58,1.2744140625E-5,20,51,46,933906,1082894,16747474,29198,16746220,16751304,27613,6510,Tag0,unknown
1499247407329,0,56,1.23046875E-5,20,51,46,933906,1082894,16747474,29198,16746220,16751304,27613,6510,Tag0,unknown
1499247407330,0,85,1.86767578125E-5,20,51,46,933906,1082894,16747474,29198,16746220,16751304,27613,6510,Tag0,unknown
1499247407330,0,-128,-2.8125E-5,20,51,46,933906,1082894,16747474,29198,16746220,16751304,27613,6510,Tag0,unknown
1499247407330,0,123,2.70263671875E-5,20,51,46,933906,1082894,16747474,29198,16746220,16751304,27613,6510,Tag0,unknown
1499247407330,0,75,1.64794921875E-5,20,51,46,933906,1082894,16747474,29198,16746220,16751304,27613,6510,Tag0,unknown
1499247407330,0,60,1.318359375E-5,20,51,46,933906,1082894,16747474,29198,16746220,16751304,27613,6510,Tag0,unknown
1499247407331,0,82,1.8017578124999998E-5,20,51,46,933906,1082894,16747474,29198,16746220,16751304,27613,6510,Tag0,unknown
1499247407331,0,102,2.2412109374999998E-5,20,51,46,933906,1082894,16747474,29198,16746220,16751304,27613,6510,Tag0,unknown
1499247407331,0,88,1.93359375E-5,20,51,46,933906,1082894,16747474,29198,16746220,16751304,27613,6510,Tag0,unknown
1499247407331,0,66,1.4501953125E-5,20,51,46,933906,1082894,16747474,29198,16746220,16751304,27613,6510,Tag0,unknown
1499247407331,0,53,1.1645507812500002E-5,20,51,46,933906,1082894,16747474,29198,16746220,16751304,27613,6510,Tag0,unknown
1499247407331,0,52,1.142578125E-5,20,51,46,933906,1082894,16747474,29198,16746220,16751304,27613,6510,Tag0,unknown
1499247407332,0,60,1.318359375E-5,20,51,46,933906,1082894,16747474,29198,16746220,16751304,27613,6510,Tag0,unknown
1499247407332,0,66,1.4501953125E-5,20,51,46,933906,1082894,16747474,29198,16746220,16751304,27613,6510,Tag0,unknown
1499247407332,0,90,1.9775390625E-5,20,51,46,933906,1082894,16747474,29198,16746220,16751304,27613,6510,Tag0,unknown
1499247407332,0,109,2.39501953125E-5,20,51,46,933906,1082894,16747474,29198,16746220,16751304,27613,6510,Tag0,unknown
1499247407332,0,86,1.8896484375000003E-5,20,51,46,933906,1082894,16747474,29198,16746220,16751304,27613,6510,Tag0,unknown
1499247407332,0,74,1.6259765625E-5,20,51,46,933906,1082894,16747474,29198,16746220,16751304,27613,6510,Tag0,unknown
1499247407333,0,75,1.64794921875E-5,20,51,46,933906,1082894,16747474,29198,16746220,16751304,27613,6510,Tag0,unknown
1499247407333,0,96,2.109375E-5,20,51,46,933906,1082894,16747474,29198,16746220,16751304,27613,6510,Tag0,unknown
1499247407333,0,124,2.724609375E-5,20,51,46,933906,1082894,16747474,29198,16746220,16751304,27613,6510,Tag0,unknown
1499247407333,0,120,2.63671875E-5,20,51,46,933906,1082894,16747474,29198,16746220,16751304,27613,6510,Tag0,unknown
1499247407333,0,100,2.197265625E-5,20,51,46,933906,1082894,16747474,29198,16746220,16751304,27613,6510,Tag0,unknown
1499247407333,0,76,1.669921875E-5,20,51,46,933906,1082894,16747474,29198,16746220,16751304,27613,6510,Tag0,unknown
1499247407334,0,54,1.1865234375000001E-5,20,51,46,933906,1082894,16747474,29198,16746220,16751304,27613,6510,Tag0,unknown
1499247407334,0,57,1.2524414062500001E-5,20,51,46,933906,1082894,16747474,29198,16746220,16751304,27613,6510,Tag0,unknown
1499247407334,0,83,1.82373046875E-5,20,51,46,933906,1082894,16747474,29198,16746220,16751304,27613,6510,Tag0,unknown
1499247407334,0,108,2.3730468750000002E-5,20,51,46,933906,1082894,16747474,29198,16746220,16751304,27613,6510,Tag0,unknown
1499247407334,0,112,2.4609375E-5,20,51,46,933906,1082894,16747474,29198,16746220,16751304,27613,6510,Tag0,unknown
1499247407335,0,53,1.1645507812500002E-5,20,51,46,933906,1082894,16747474,29198,16746220,16751304,27613,6510,Tag0,unknown
1499247407335,0,-265,-5.82275390625E-5,20,51,46,933906,1082894,16747474,29198,16746220,16751304,27613,6510,Tag0,unknown
1499247407335,0,-262,-5.7568359375E-5,20,51,46,933906,1082894,16747474,29198,16746220,16751304,27613,6510,Tag0,unknown
1499247407335,0,32,7.03125E-6,20,51,46,933906,1082894,16747474,29198,16746220,16751304,27613,6510,Tag0,unknown
1499247407335,0,36,7.91015625E-6,20,51,46,933906,1082894,16747474,29198,16746220,16751304,27613,6510,Tag0,unknown
1499247407336,0,39,8.5693359375E-6,20,51,46,933906,1082894,16747474,29198,16746220,16751304,27613,6510,Tag0,unknown
1499247407336,0,65,1.42822265625E-5,20,51,46,933906,1082894,16747474,29198,16746220,16751304,27613,6510,Tag0,unknown
1499247407336,0,81,1.77978515625E-5,20,51,46,933906,1082894,16747474,29198,16746220,16751304,27613,6510,Tag0,unknown
1499247407336,0,70,1.5380859375E-5,20,51,46,933906,1082894,16747474,29198,16746220,16751304,27613,6510,Tag0,unknown
1499247407336,0,48,1.0546875E-5,20,51,46,933906,1082894,16747474,29198,16746220,16751304,27613,6510,Tag0,unknown
1499247407337,0,32,7.03125E-6,20,51,46,933906,1082894,16747474,29198,16746220,16751304,27613,6510,Tag0,unknown
1499247407337,0,32,7.03125E-6,20,51,46,933906,1082894,16747474,29198,16746220,16751304,27613,6510,Tag0,unknown
1499247407337,0,17,3.7353515625000003E-6,20,51,46,933906,1082894,16747474,29198,16746220,16751304,27613,6510,Tag0,unknown
1499247407337,0,23,5.0537109375E-6,20,51,46,933906,1082894,16747474,29198,16746220,16751304,27613,6510,Tag0,unknown
1499247407337,0,66,1.4501953125E-5,20,51,46,933906,1082894,16747474,29198,16746220,16751304,27613,6510,Tag0,unknown
1499247407338,0,74,1.6259765625E-5,20,51,46,933906,1082894,16747474,29198,16746220,16751304,27613,6510,Tag0,unknown
1499247407338,0,43,9.448242187500001E-6,20,51,46,933906,1082894,16747474,29198,16746220,16751304,27613,6510,Tag0,unknown
1499247407338,0,-262,-5.7568359375E-5,20,51,46,933906,1082894,16747474,29198,16746220,16751304,27613,6510,Tag0,unknown
1499247407338,0,-263,-5.7788085937500005E-5,20,51,46,933906,1082894,16747474,29198,16746220,16751304,27613,6510,Tag0,unknown
1499247407338,0,29,6.3720703125E-6,20,51,46,933906,1082894,16747474,29198,16746220,16751304,27613,6510,Tag0,unknown
1499247407339,0,68,1.4941406250000001E-5,20,51,46,933906,1082894,16747474,29198,16746220,16751304,27613,6510,Tag0,unknown
1499247407339,0,104,2.28515625E-5,20,51,46,933906,1082894,16747474,29198,16746220,16751304,27613,6510,Tag0,unknown
1499247407339,0,-125,-2.74658203125E-5,20,51,46,933906,1082894,16747474,29198,16746220,16751304,27613,6510,Tag0,unknown
1499247407339,0,104,2.28515625E-5,20,51,46,933906,1082894,16747474,29198,16746220,16751304,27613,6510,Tag0,unknown
1499247407339,0,82,1.8017578124999998E-5,20,51,46,933906,1082894,16747474,29198,16746220,16751304,27613,6510,Tag0,unknown
1499247407339,0,83,1.82373046875E-5,20,51,46,933906,1082894,16747474,29198,16746220,16751304,27613,6510,Tag0,unknown
1499247407340,0,66,1.4501953125E-5,20,51,46,933906,1082894,16747474,29198,16746220,16751304,27613,6510,Tag0,unknown
1499247407340,0,45,9.8876953125E-6,20,51,46,933906,1082894,16747474,29198,16746220,16751304,27613,6510,Tag0,unknown
1499247407340,0,44,9.66796875E-6,20,51,46,933906,1082894,16747474,29198,16746220,16751304,27613,6510,Tag0,unknown
1499247407340,0,37,8.1298828125E-6,20,51,46,933906,1082894,16747474,29198,16746220,16751304,27613,6510,Tag0,unknown
1499247407340,0,12,2.63671875E-6,20,51,46,933906,1082894,16747474,29198,16746220,16751304,27613,6510,Tag0,unknown
1499247407340,0,-270,-5.9326171875E-5,20,51,46,933906,1082894,16747474,29198,16746220,16751304,27613,6510,Tag0,unknown
1499247407341,0,-267,-5.86669921875E-5,20,51,46,933906,1082894,16747474,29198,16746220,16751304,27613,6510,Tag0,unknown
1499247407341,0,-259,-5.69091796875E-5,20,51,46,933906,1082894,16747474,29198,16746220,16751304,27613,6510,Tag0,unknown
1499247407341,0,6,1.318359375E-6,20,51,46,933906,1082894,16747474,29198,16746220,16751304,27613,6510,Tag0,unknown
1499247407341,0,17,3.7353515625000003E-6,20,51,46,933906,1082894,16747474,29198,16746220,16751304,27613,6510,Tag0,unknown
1499247407341,0,27,5.9326171875000005E-6,20,51,46,933906,1082894,16747474,29198,16746220,16751304,27613,6510,Tag0,unknown
1499247407341,0,48,1.0546875E-5,20,51,46,933906,1082894,16747474,29198,16746220,16751304,27613,6510,Tag0,unknown
1499247407341,0,54,1.1865234375000001E-5,20,51,46,933906,1082894,16747474,29198,16746220,16751304,27613,6510,Tag0,unknown
1499247407342,0,55,1.20849609375E-5,20,51,46,933906,1082894,16747474,29198,16746220,16751304,27613,6510,Tag0,unknown
1499247407342,0,86,1.8896484375000003E-5,20,51,46,933906,1082894,16747474,29198,16746220,16751304,27613,6510,Tag0,unknown
1499247407342,0,75,1.64794921875E-5,20,51,46,933906,1082894,16747474,29198,16746220,16751304,27613,6510,Tag0,unknown
1499247407342,0,41,9.008789062499999E-6,20,51,46,933906,1082894,16747474,29198,16746220,16751304,27613,6510,Tag0,unknown
1499247407342,0,9,1.9775390625E-6,20,51,46,933906,1082894,16747474,29198,16746220,16751304,27613,6510,Tag0,unknown
1499247407342,0,-258,-5.6689453125000004E-5,20,51,46,933906,1082894,16747474,29198,16746220,16751304,27613,6510,Tag0,unknown
1499247407342,0,7,1.5380859375E-6,20,51,46,933906,1082894,16747474,29198,16746220,16751304,27613,6510,Tag0,unknown
1499247407343,0,37,8.1298828125E-6,20,51,46,933906,1082894,16747474,29198,16746220,16751304,27613,6510,Tag0,unknown
1499247407343,0,52,1.142578125E-5,20,51,46,933906,1082894,16747474,29198,16746220,16751304,27613,6510,Tag0,unknown
1499247407343,0,56,1.23046875E-5,20,51,46,933906,1082894,16747474,29198,16746220,16751304,27613,6510,Tag0,unknown
1499247407343,0,61,1.34033203125E-5,20,51,46,933906,1082894,16747474,29198,16746220,16751304,27613,6510,Tag0,unknown
1499247407343,0,72,1.58203125E-5,20,51,46,933906,1082894,16747474,29198,16746220,16751304,27613,6510,Tag0,unknown
1499247407343,0,77,1.69189453125E-5,20,51,46,933906,1082894,16747474,29198,16746220,16751304,27613,6510,Tag0,unknown
1499247407343,0,87,1.91162109375E-5,20,51,46,933906,1082894,16747474,29198,16746220,16751304,27613,6510,Tag0,unknown
1499247407344,0,69,1.51611328125E-5,20,51,46,933906,1082894,16747474,29198,16746220,16751304,27613,6510,Tag0,unknown
1499247407344,0,28,6.15234375E-6,20,51,46,933906,1082894,16747474,29198,16746220,16751304,27613,6510,Tag0,unknown
1499247407344,0,28,6.15234375E-6,20,51,46,933906,1082894,16747474,29198,16746220,16751304,27613,6510,Tag0,unknown
1499247407344,0,72,1.58203125E-5,20,51,46,933906,1082894,16747474,29198,16746220,16751304,27613,6510,Tag0,unknown
1499247407344,0,84,1.8457031250000004E-5,20,51,46,933906,1082894,16747474,29198,16746220,16751304,27613,6510,Tag0,unknown
1499247407344,0,53,1.1645507812500002E-5,20,51,46,933906,1082894,16747474,29198,16746220,16751304,27613,6510,Tag0,unknown
1499247407344,0,4,8.7890625E-7,20,51,46,933906,1082894,16747474,29198,16746220,16751304,27613,6510,Tag0,unknown
1499247407345,0,-285,-6.26220703125E-5,20,51,46,933906,1082894,16747474,29198,16746220,16751304,27613,6510,Tag0,unknown
1499247407345,0,-293,-6.43798828125E-5,20,51,46,933906,1082894,16747474,29198,16746220,16751304,27613,6510,Tag0,unknown
1499247407345,0,-277,-6.0864257812500005E-5,20,51,46,933906,1082894,16747474,29198,16746220,16751304,27613,6510,Tag0,unknown
1499247407345,0,11,2.4169921875E-6,20,51,46,933906,1082894,16747474,29198,16746220,16751304,27613,6510,Tag0,unknown
1499247407345,0,48,1.0546875E-5,20,51,46,933906,1082894,16747474,29198,16746220,16751304,27613,6510,Tag0,unknown
1499247407345,0,33,7.2509765625E-6,20,51,46,933906,1082894,16747474,29198,16746220,16751304,27613,6510,Tag0,unknown
1499247407346,0,1,2.197265625E-7,20,51,46,933906,1082894,16747474,29198,16746220,16751304,27613,6510,Tag0,unknown
1499247407346,0,-257,-5.64697265625E-5,20,51,46,933906,1082894,16747474,29198,16746220,16751304,27613,6510,Tag0,unknown
1499247407346,0,3,6.591796875E-7,20,51,46,933906,1082894,16747474,29198,16746220,16751304,27613,6510,Tag0,unknown
1499247407346,0,12,2.63671875E-6,20,51,46,933906,1082894,16747474,29198,16746220,16751304,27613,6510,Tag0,unknown
1499247407346,0,38,8.349609375E-6,20,51,46,933906,1082894,16747474,29198,16746220,16751304,27613,6510,Tag0,unknown
1499247407346,0,39,8.5693359375E-6,20,51,46,933906,1082894,16747474,29198,16746220,16751304,27613,6510,Tag0,unknown
1499247407347,0,39,8.5693359375E-6,20,51,46,933906,1082894,16747474,29198,16746220,16751304,27613,6510,Tag0,unknown
1499247407347,0,60,1.318359375E-5,20,51,46,933906,1082894,16747474,29198,16746220,16751304,27613,6510,Tag0,unknown
1499247407347,0,92,2.021484375E-5,20,51,46,933906,1082894,16747474,29198,16746220,16751304,27613,6510,Tag0,unknown
1499247407347,0,92,2.021484375E-5,20,51,46,933906,1082894,16747474,29198,16746220,16751304,27613,6510,Tag0,unknown
1499247407347,0,56,1.23046875E-5,20,51,46,933906,1082894,16747474,29198,16746220,16751304,27613,6510,Tag0,unknown
1499247407348,0,50,1.0986328125E-5,20,51,46,933906,1082894,16747474,29198,16746220,16751304,27613,6510,Tag0,unknown
1499247407348,0,80,1.7578125E-5,20,51,46,933906,1082894,16747474,29198,16746220,16751304,27613,6510,Tag0,unknown
1499247407348,0,84,1.8457031250000004E-5,20,51,46,933906,1082894,16747474,29198,16746220,16751304,27613,6510,Tag0,unknown
1499247407348,0,82,1.8017578124999998E-5,20,51,46,933906,1082894,16747474,29198,16746220,16751304,27613,6510,Tag0,unknown
1499247407349,0,80,1.7578125E-5,20,51,46,933906,1082894,16747474,29198,16746220,16751304,27613,6510,Tag0,unknown
1499247407349,0,86,1.8896484375000003E-5,20,51,46,933906,1082894,16747474,29198,16746220,16751304,27613,6510,Tag0,unknown
1499247407349,0,77,1.69189453125E-5,20,51,46,933906,1082894,16747474,29198,16746220,16751304,27613,6510,Tag0,unknown
1499247407350,0,70,1.5380859375E-5,20,51,46,933906,1082894,16747474,29198,16746220,16751304,27613,6510,Tag0,unknown
1499247407350,0,83,1.82373046875E-5,20,51,46,933906,1082894,16747474,29198,16746220,16751304,27613,6510,Tag0,unknown
1499247407350,0,66,1.4501953125E-5,20,51,46,933906,1082894,16747474,29198,16746220,16751304,27613,6510,Tag0,unknown
1499247407350,0,82,1.8017578124999998E-5,20,51,46,933906,1082894,16747474,29198,16746220,16751304,27613,6510,Tag0,unknown
1499247407350,0,86,1.8896484375000003E-5,20,51,46,933906,1082894,16747474,29198,16746220,16751304,27613,6510,Tag0,unknown
1499247407350,0,50,1.0986328125E-5,20,51,46,933906,1082894,16747474,29198,16746220,16751304,27613,6510,Tag0,unknown
1499247407351,0,52,1.142578125E-5,20,51,46,933906,1082894,16747474,29198,16746220,16751304,27613,6510,Tag0,unknown
1499247407351,0,71,1.56005859375E-5,20,51,46,933906,1082894,16747474,29198,16746220,16751304,27613,6510,Tag0,unknown
1499247407351,0,85,1.86767578125E-5,20,51,46,933906,1082894,16747474,29198,16746220,16751304,27613,6510,Tag0,unknown
1499247407351,0,71,1.56005859375E-5,20,51,46,933906,1082894,16747474,29198,16746220,16751304,27613,6510,Tag0,unknown
1499247407351,0,43,9.448242187500001E-6,20,51,46,933906,1082894,16747474,29198,16746220,16751304,27613,6510,Tag0,unknown
1499247407351,0,42,9.228515625000002E-6,20,51,46,933906,1082894,16747474,29198,16746220,16751304,27613,6510,Tag0,unknown
1499247407351,0,70,1.5380859375E-5,20,51,46,933906,1082894,16747474,29198,16746220,16751304,27613,6510,Tag0,unknown
1499247407352,0,81,1.77978515625E-5,20,51,46,933906,1082894,16747474,29198,16746220,16751304,27613,6510,Tag0,unknown
1499247407352,0,71,1.56005859375E-5,20,51,46,933906,1082894,16747474,29198,16746220,16751304,27613,6510,Tag0,unknown
1499247407352,0,80,1.7578125E-5,20,51,46,933906,1082894,16747474,29198,16746220,16751304,27613,6510,Tag0,unknown
1499247407352,0,117,2.5708007812499998E-5,20,51,46,933906,1082894,16747474,29198,16746220,16751304,27613,6510,Tag0,unknown
1499247407352,0,-93,-2.04345703125E-5,20,51,46,933906,1082894,16747474,29198,16746220,16751304,27613,6510,Tag0,unknown
1499247407352,0,-105,-2.30712890625E-5,20,51,46,933906,1082894,16747474,29198,16746220,16751304,27613,6510,Tag0,unknown
1499247407352,0,102,2.2412109374999998E-5,20,51,46,933906,1082894,16747474,29198,16746220,16751304,27613,6510,Tag0,unknown
1499247407353,0,69,1.51611328125E-5,20,51,46,933906,1082894,16747474,29198,16746220,16751304,27613,6510,Tag0,unknown
1499247407353,0,64,1.40625E-5,20,51,46,933906,1082894,16747474,29198,16746220,16751304,27613,6510,Tag0,unknown
1499247407353,0,117,2.5708007812499998E-5,20,51,46,933906,1082894,16747474,29198,16746220,16751304,27613,6510,Tag0,unknown
1499247407353,0,-94,-2.0654296875000002E-5,20,51,46,933906,1082894,16747474,29198,16746220,16751304,27613,6510,Tag0,unknown
1499247407353,0,-116,-2.548828125E-5,20,51,46,933906,1082894,16747474,29198,16746220,16751304,27613,6510,Tag0,unknown
1499247407353,0,90,1.9775390625E-5,20,51,46,933906,1082894,16747474,29198,16746220,16751304,27613,6510,Tag0,unknown
1499247407353,0,103,2.26318359375E-5,20,51,46,933906,1082894,16747474,29198,16746220,16751304,27613,6510,Tag0,unknown
1499247407354,0,-125,-2.74658203125E-5,20,51,46,933906,1082894,16747474,29198,16746220,16751304,27613,6510,Tag0,unknown
1499247407354,0,-123,-2.70263671875E-5,20,51,46,933906,1082894,16747474,29198,16746220,16751304,27613,6510,Tag0,unknown
1499247407354,0,124,2.724609375E-5,20,51,46,933906,1082894,16747474,29198,16746220,16751304,27613,6510,Tag0,unknown
1499247407354,0,107,2.35107421875E-5,20,51,46,933906,1082894,16747474,29198,16746220,16751304,27613,6510,Tag0,unknown
1499247407354,0,58,1.2744140625E-5,20,51,46,933906,1082894,16747474,29198,16746220,16751304,27613,6510,Tag0,unknown
1499247407354,0,53,1.1645507812500002E-5,20,51,46,933906,1082894,16747474,29198,16746220,16751304,27613,6510,Tag0,unknown
1499247407354,0,-124,-2.724609375E-5,20,51,46,933906,1082894,16747474,29198,16746220,16751304,27613,6510,Tag0,unknown
1499247407354,0,108,2.3730468750000002E-5,20,51,46,933906,1082894,16747474,29198,16746220,16751304,27613,6510,Tag0,unknown
1499247407355,0,24,5.2734375E-6,20,51,46,933906,1082894,16747474,29198,16746220,16751304,27613,6510,Tag0,unknown
1499247407355,0,25,5.4931640625E-6,20,51,46,933906,1082894,16747474,29198,16746220,16751304,27613,6510,Tag0,unknown
1499247407355,0,69,1.51611328125E-5,20,51,46,933906,1082894,16747474,29198,16746220,16751304,27613,6510,Tag0,unknown
1499247407355,0,71,1.56005859375E-5,20,51,46,933906,1082894,16747474,29198,16746220,16751304,27613,6510,Tag0,unknown
1499247407355,0,44,9.66796875E-6,20,51,46,933906,1082894,16747474,29198,16746220,16751304,27613,6510,Tag0,unknown
1499247407355,0,16,3.515625E-6,20,51,46,933906,1082894,16747474,29198,16746220,16751304,27613,6510,Tag0,unknown
1499247407356,0,-261,-5.73486328125E-5,20,51,46,933906,1082894,16747474,29198,16746220,16751304,27613,6510,Tag0,unknown
1499247407356,0,-283,-6.218261718750001E-5,20,51,46,933906,1082894,16747474,29198,16746220,16751304,27613,6510,Tag0,unknown
1499247407356,0,-311,-6.833496093750001E-5,20,51,46,933906,1082894,16747474,29198,16746220,16751304,27613,6510,Tag0,unknown
1499247407356,0,-310,-6.8115234375E-5,20,51,46,933906,1082894,16747474,29198,16746220,16751304,27613,6510,Tag0,unknown
1499247407356,0,-278,-6.108398437500001E-5,20,51,46,933906,1082894,16747474,29198,16746220,16751304,27613,6510,Tag0,unknown
1499247407356,0,22,4.833984375E-6,20,51,46,933906,1082894,16747474,29198,16746220,16751304,27613,6510,Tag0,unknown
1499247407361,0,65,1.42822265625E-5,20,51,46,933906,1082894,16747474,29198,16746220,16751304,27613,6510,Tag0,unknown
1499247407361,0,83,1.82373046875E-5,20,51,46,933906,1082894,16747474,29198,16746220,16751304,27613,6510,Tag0,unknown
1499247407361,0,102,2.2412109374999998E-5,20,51,46,933906,1082894,16747474,29198,16746220,16751304,27613,6510,Tag0,unknown
1499247407362,0,-119,-2.6147460937500004E-5,20,51,46,933906,1082894,16747474,29198,16746220,16751304,27613,6510,Tag0,unknown
1499247407362,0,-93,-2.04345703125E-5,20,51,46,933906,1082894,16747474,29198,16746220,16751304,27613,6510,Tag0,unknown
1499247407362,0,-88,-1.93359375E-5,20,51,46,933906,1082894,16747474,29198,16746220,16751304,27613,6510,Tag0,unknown
1499247407362,0,-85,-1.86767578125E-5,20,51,46,933906,1082894,16747474,29198,16746220,16751304,27613,6510,Tag0,unknown
1499247407362,0,-90,-1.9775390625E-5,20,51,46,933906,1082894,16747474,29198,16746220,16751304,27613,6510,Tag0,unknown
1499247407362,0,-120,-2.63671875E-5,20,51,46,933906,1082894,16747474,29198,16746220,16751304,27613,6510,Tag0,unknown
1499247407362,0,82,1.8017578124999998E-5,20,51,46,933906,1082894,16747474,29198,16746220,16751304,27613,6510,Tag0,unknown
1499247407363,0,77,1.69189453125E-5,20,51,46,933906,1082894,16747474,29198,16746220,16751304,27613,6510,Tag0,unknown
1499247407363,0,124,2.724609375E-5,20,51,46,933906,1082894,16747474,29198,16746220,16751304,27613,6510,Tag0,unknown
1499247407363,0,-68,-1.4941406250000001E-5,20,51,46,933906,1082894,16747474,29198,16746220,16751304,27613,6510,Tag0,unknown
1499247407363,0,-55,-1.20849609375E-5,20,51,46,933906,1082894,16747474,29198,16746220,16751304,27613,6510,Tag0,unknown
1499247407363,0,-111,-2.43896484375E-5,20,51,46,933906,1082894,16747474,29198,16746220,16751304,27613,6510,Tag0,unknown
1499247407363,0,73,1.6040039062500002E-5,20,51,46,933906,1082894,16747474,29198,16746220,16751304,27613,6510,Tag0,unknown
1499247407363,0,70,1.5380859375E-5,20,51,46,933906,1082894,16747474,29198,16746220,16751304,27613,6510,Tag0,unknown
1499247407364,0,55,1.20849609375E-5,20,51,46,933906,1082894,16747474,29198,16746220,16751304,27613,6510,Tag0,unknown
1499247407364,0,64,1.40625E-5,20,51,46,933906,1082894,16747474,29198,16746220,16751304,27613,6510,Tag0,unknown
1499247407364,0,122,2.6806640625E-5,20,51,46,933906,1082894,16747474,29198,16746220,16751304,27613,6510,Tag0,unknown
1499247408344,0,-109,-2.39501953125E-5,20,51,46,933906,1082894,16747474,29198,16746220,16751304,27613,6510,Tag0,unknown
1499247408344,0,100,2.197265625E-5,20,51,46,933906,1082894,16747474,29198,16746220,16751304,27613,6510,Tag0,unknown
1499247408345,0,58,1.2744140625E-5,20,51,46,933906,1082894,16747474,29198,16746220,16751304,27613,6510,Tag0,unknown
1499247408346,0,38,8.349609375E-6,20,51,46,933906,1082894,16747474,29198,16746220,16751304,27613,6510,Tag0,unknown
1499247408346,0,-282,-6.1962890625E-5,20,51,46,933906,1082894,16747474,29198,16746220,16751304,27613,6510,Tag0,unknown
1499247408347,0,-316,-6.943359375000001E-5,20,51,46,933906,1082894,16747474,29198,16746220,16751304,27613,6510,Tag0,unknown
1499247408348,0,49,1.07666015625E-5,20,51,46,933906,1082894,16747474,29198,16746220,16751304,27613,6510,Tag0,unknown
1499247408348,0,106,2.3291015625000003E-5,20,51,46,933906,1082894,16747474,29198,16746220,16751304,27613,6510,Tag0,unknown
1499247408349,0,72,1.58203125E-5,20,51,46,933906,1082894,16747474,29198,16746220,16751304,27613,6510,Tag0,unknown
1499247408349,0,59,1.29638671875E-5,20,51,46,933906,1082894,16747474,29198,16746220,16751304,27613,6510,Tag0,unknown
1499247408349,0,68,1.4941406250000001E-5,20,51,46,933906,1082894,16747474,29198,16746220,16751304,27613,6510,Tag0,unknown
1499247408350,0,23,5.0537109375E-6,20,51,46,933906,1082894,16747474,29198,16746220,16751304,27613,6510,Tag0,unknown
1499247408350,0,20,4.39453125E-6,20,51,46,933906,1082894,16747474,29198,16746220,16751304,27613,6510,Tag0,unknown
1499247408351,0,96,2.109375E-5,20,51,46,933906,1082894,16747474,29198,16746220,16751304,27613,6510,Tag0,unknown
1499247408351,0,81,1.77978515625E-5,20,51,46,933906,1082894,16747474,29198,16746220,16751304,27613,6510,Tag0,unknown
1499247408351,0,64,1.40625E-5,20,51,46,933906,1082894,16747474,29198,16746220,16751304,27613,6510,Tag0,unknown
1499247408352,0,122,2.6806640625E-5,20,51,46,933906,1082894,16747474,29198,16746220,16751304,27613,6510,Tag0,unknown
1499247408352,0,-77,-1.69189453125E-5,20,51,46,933906,1082894,16747474,29198,16746220,16751304,27613,6510,Tag0,unknown
1499247408353,0,-117,-2.5708007812499998E-5,20,51,46,933906,1082894,16747474,29198,16746220,16751304,27613,6510,Tag0,unknown
1499247408353,0,-112,-2.4609375E-5,20,51,46,933906,1082894,16747474,29198,16746220,16751304,27613,6510,Tag0,unknown
1499247408353,0,-125,-2.74658203125E-5,20,51,46,933906,1082894,16747474,29198,16746220,16751304,27613,6510,Tag0,unknown
1499247408354,0,108,2.3730468750000002E-5,20,51,46,933906,1082894,16747474,29198,16746220,16751304,27613,6510,Tag0,unknown
1499247408354,0,73,1.6040039062500002E-5,20,51,46,933906,1082894,16747474,29198,16746220,16751304,27613,6510,Tag0,unknown
1499247408355,0,5,1.0986328125E-6,20,51,46,933906,1082894,16747474,29198,16746220,16751304,27613,6510,Tag0,unknown
1499247408355,0,-312,-6.85546875E-5,20,51,46,933906,1082894,16747474,29198,16746220,16751304,27613,6510,Tag0,unknown
1499247408356,0,0,0.0,20,51,46,933906,1082894,16747474,29198,16746220,16751304,27613,6510,Tag0,unknown
1499247408356,0,76,1.669921875E-5,20,51,46,933906,1082894,16747474,29198,16746220,16751304,27613,6510,Tag0,unknown
1499247408356,0,81,1.77978515625E-5,20,51,46,933906,1082894,16747474,29198,16746220,16751304,27613,6510,Tag0,unknown
1499247408357,0,55,1.20849609375E-5,20,51,46,933906,1082894,16747474,29198,16746220,16751304,27613,6510,Tag0,unknown
1499247408357,0,9,1.9775390625E-6,20,51,46,933906,1082894,16747474,29198,16746220,16751304,27613,6510,Tag0,unknown
1499247408358,0,-290,-6.3720703125E-5,20,51,46,933906,1082894,16747474,29198,16746220,16751304,27613,6510,Tag0,unknown
1499247408358,0,-293,-6.43798828125E-5,20,51,46,933906,1082894,16747474,29198,16746220,16751304,27613,6510,Tag0,unknown
1499247408359,0,7,1.5380859375E-6,20,51,46,933906,1082894,16747474,29198,16746220,16751304,27613,6510,Tag0,unknown
1499247408359,0,85,1.86767578125E-5,20,51,46,933906,1082894,16747474,29198,16746220,16751304,27613,6510,Tag0,unknown
1499247408360,0,-106,-2.3291015625000003E-5,20,51,46,933906,1082894,16747474,29198,16746220,16751304,27613,6510,Tag0,unknown
1499247408360,0,-109,-2.39501953125E-5,20,51,46,933906,1082894,16747474,29198,16746220,16751304,27613,6510,Tag0,unknown
1499247408360,0,73,1.6040039062500002E-5,20,51,46,933906,1082894,16747474,29198,16746220,16751304,27613,6510,Tag0,unknown
1499247408361,0,21,4.614257812500001E-6,20,51,46,933906,1082894,16747474,29198,16746220,16751304,27613,6510,Tag0,unknown
1499247408361,0,27,5.9326171875000005E-6,20,51,46,933906,1082894,16747474,29198,16746220,16751304,27613,6510,Tag0,unknown
1499247408362,0,68,1.4941406250000001E-5,20,51,46,933906,1082894,16747474,29198,16746220,16751304,27613,6510,Tag0,unknown
1499247408362,0,116,2.548828125E-5,20,51,46,933906,1082894,16747474,29198,16746220,16751304,27613,6510,Tag0,unknown
1499247408362,0,24,5.2734375E-6,20,51,46,933906,1082894,16747474,29198,16746220,16751304,27613,6510,Tag0,unknown
1499247408363,0,-276,-6.064453125E-5,20,51,46,933906,1082894,16747474,29198,16746220,16751304,27613,6510,Tag0,unknown
1499247408363,0,56,1.23046875E-5,20,51,46,933906,1082894,16747474,29198,16746220,16751304,27613,6510,Tag0,unknown
1499247408364,0,100,2.197265625E-5,20,51,46,933906,1082894,16747474,29198,16746220,16751304,27613,6510,Tag0,unknown
1499247408364,0,100,2.197265625E-5,20,51,46,933906,1082894,16747474,29198,16746220,16751304,27613,6510,Tag0,unknown
1499247408365,0,104,2.28515625E-5,20,51,46,933906,1082894,16747474,29198,16746220,16751304,27613,6510,Tag0,unknown
1499247408365,0,71,1.56005859375E-5,20,51,46,933906,1082894,16747474,29198,16746220,16751304,27613,6510,Tag0,unknown
1499247408366,0,33,7.2509765625E-6,20,51,46,933906,1082894,16747474,29198,16746220,16751304,27613,6510,Tag0,unknown
1499247408366,0,101,2.2192382812500002E-5,20,51,46,933906,1082894,16747474,29198,16746220,16751304,27613,6510,Tag0,unknown
1499247408367,0,-121,-2.6586914062500003E-5,20,51,46,933906,1082894,16747474,29198,16746220,16751304,27613,6510,Tag0,unknown
1499247408367,0,28,6.15234375E-6,20,51,46,933906,1082894,16747474,29198,16746220,16751304,27613,6510,Tag0,unknown
1499247408367,0,85,1.86767578125E-5,20,51,46,933906,1082894,16747474,29198,16746220,16751304,27613,6510,Tag0,unknown
1499247408368,0,-48,-1.0546875E-5,20,51,46,933906,1082894,16747474,29198,16746220,16751304,27613,6510,Tag0,unknown
1499247408368,0,36,7.91015625E-6,20,51,46,933906,1082894,16747474,29198,16746220,16751304,27613,6510,Tag0,unknown
1499247408369,0,-361,-7.93212890625E-5,20,51,46,933906,1082894,16747474,29198,16746220,16751304,27613,6510,Tag0,unknown
1499247408369,0,-276,-6.064453125E-5,20,51,46,933906,1082894,16747474,29198,16746220,16751304,27613,6510,Tag0,unknown
1499247408370,0,99,2.1752929687500003E-5,20,51,46,933906,1082894,16747474,29198,16746220,16751304,27613,6510,Tag0,unknown
1499247408370,0,-104,-2.28515625E-5,20,51,46,933906,1082894,16747474,29198,16746220,16751304,27613,6510,Tag0,unknown
1499247408371,0,-73,-1.6040039062500002E-5,20,51,46,933906,1082894,16747474,29198,16746220,16751304,27613,6510,Tag0,unknown
1499247408371,0,88,1.93359375E-5,20,51,46,933906,1082894,16747474,29198,16746220,16751304,27613,6510,Tag0,unknown
1499247408372,0,6,1.318359375E-6,20,51,46,933906,1082894,16747474,29198,16746220,16751304,27613,6510,Tag0,unknown
1499247408372,0,84,1.8457031250000004E-5,20,51,46,933906,1082894,16747474,29198,16746220,16751304,27613,6510,Tag0,unknown
1499247408373,0,86,1.8896484375000003E-5,20,51,46,933906,1082894,16747474,29198,16746220,16751304,27613,6510,Tag0,unknown
1499247408373,0,17,3.7353515625000003E-6,20,51,46,933906,1082894,16747474,29198,16746220,16751304,27613,6510,Tag0,unknown
1499247408373,0,103,2.26318359375E-5,20,51,46,933906,1082894,16747474,29198,16746220,16751304,27613,6510,Tag0,unknown
1499247408374,0,-87,-1.91162109375E-5,20,51,46,933906,1082894,16747474,29198,16746220,16751304,27613,6510,Tag0,unknown
1499247408374,0,101,2.2192382812500002E-5,20,51,46,933906,1082894,16747474,29198,16746220,16751304,27613,6510,Tag0,unknown
1499247408375,0,11,2.4169921875E-6,20,51,46,933906,1082894,16747474,29198,16746220,16751304,27613,6510,Tag0,unknown
1499247408375,0,45,9.8876953125E-6,20,51,46,933906,1082894,16747474,29198,16746220,16751304,27613,6510,Tag0,unknown
1499247408376,0,124,2.724609375E-5,20,51,46,933906,1082894,16747474,29198,16746220,16751304,27613,6510,Tag0,unknown
1499247408376,0,58,1.2744140625E-5,20,51,46,933906,1082894,16747474,29198,16746220,16751304,27613,6510,Tag0,unknown
1499247408377,0,-265,-5.82275390625E-5,20,51,46,933906,1082894,16747474,29198,16746220,16751304,27613,6510,Tag0,unknown
1499247408378,0,-286,-6.2841796875E-5,20,51,46,933906,1082894,16747474,29198,16746220,16751304,27613,6510,Tag0,unknown
1499247408378,0,13,2.8564453125E-6,20,51,46,933906,1082894,16747474,29198,16746220,16751304,27613,6510,Tag0,unknown
1499247408379,0,112,2.4609375E-5,20,51,46,933906,1082894,16747474,29198,16746220,16751304,27613,6510,Tag0,unknown
1499247408379,0,-93,-2.04345703125E-5,20,51,46,933906,1082894,16747474,29198,16746220,16751304,27613,6510,Tag0,unknown
1499247408380,0,123,2.70263671875E-5,20,51,46,933906,1082894,16747474,29198,16746220,16751304,27613,6510,Tag0,unknown
1499247408380,0,-262,-5.7568359375E-5,20,51,46,933906,1082894,16747474,29198,16746220,16751304,27613,6510,Tag0,unknown
1499247408381,0,-321,-7.053222656250001E-5,20,51,46,933906,1082894,16747474,29198,16746220,16751304,27613,6510,Tag0,unknown
1499247408381,0,-299,-6.56982421875E-5,20,51,46,933906,1082894,16747474,29198,16746220,16751304,27613,6510,Tag0,unknown
1499247408382,0,105,2.30712890625E-5,20,51,46,933906,1082894,16747474,29198,16746220,16751304,27613,6510,Tag0,unknown
1499247408382,0,-60,-1.318359375E-5,20,51,46,933906,1082894,16747474,29198,16746220,16751304,27613,6510,Tag0,unknown
1499247408383,0,100,2.197265625E-5,20,51,46,933906,1082894,16747474,29198,16746220,16751304,27613,6510,Tag0,unknown
1499247408383,0,9,1.9775390625E-6,20,51,46,933906,1082894,16747474,29198,16746220,16751304,27613,6510,Tag0,unknown
1499247408384,0,-292,-6.416015625000001E-5,20,51,46,933906,1082894,16747474,29198,16746220,16751304,27613,6510,Tag0,unknown
1499247408384,0,-276,-6.064453125E-5,20,51,46,933906,1082894,16747474,29198,16746220,16751304,27613,6510,Tag0,unknown
1499247408385,0,4,8.7890625E-7,20,51,46,933906,1082894,16747474,29198,16746220,16751304,27613,6510,Tag0,unknown
1499247408385,0,38,8.349609375E-6,20,51,46,933906,1082894,16747474,29198,16746220,16751304,27613,6510,Tag0,unknown
1499247408386,0,67,1.4721679687500002E-5,20,51,46,933906,1082894,16747474,29198,16746220,16751304,27613,6510,Tag0,unknown
1499247408386,0,72,1.58203125E-5,20,51,46,933906,1082894,16747474,29198,16746220,16751304,27613,6510,Tag0,unknown
1499247408387,0,90,1.9775390625E-5,20,51,46,933906,1082894,16747474,29198,16746220,16751304,27613,6510,Tag0,unknown
1499247408387,0,86,1.8896484375000003E-5,20,51,46,933906,1082894,16747474,29198,16746220,16751304,27613,6510,Tag0,unknown
1499247408387,0,121,2.6586914062500003E-5,20,51,46,933906,1082894,16747474,29198,16746220,16751304,27613,6510,Tag0,unknown
1499247408388,0,-102,-2.2412109374999998E-5,20,51,46,933906,1082894,16747474,29198,16746220,16751304,27613,6510,Tag0,unknown
1499247408388,0,18,3.955078125E-6,20,51,46,933906,1082894,16747474,29198,16746220,16751304,27613,6510,Tag0,unknown
1499247408389,0,-306,-6.723632812500001E-5,20,51,46,933906,1082894,16747474,29198,16746220,16751304,27613,6510,Tag0,unknown
1499247408389,0,35,7.6904296875E-6,20,51,46,933906,1082894,16747474,29198,16746220,16751304,27613,6510,Tag0,unknown
1499247408390,0,19,4.1748046875E-6,20,51,46,933906,1082894,16747474,29198,16746220,16751304,27613,6510,Tag0,unknown
1499247408390,0,-297,-6.525878906250001E-5,20,51,46,933906,1082894,16747474,29198,16746220,16751304,27613,6510,Tag0,unknown
1499247408391,0,76,1.669921875E-5,20,51,46,933906,1082894,16747474,29198,16746220,16751304,27613,6510,Tag0,unknown
1499247408391,0,85,1.86767578125E-5,20,51,46,933906,1082894,16747474,29198,16746220,16751304,27613,6510,Tag0,unknown
1499247408392,0,-358,-7.8662109375E-5,20,51,46,933906,1082894,16747474,29198,16746220,16751304,27613,6510,Tag0,unknown
1499247408392,0,-163,-3.5815429687500006E-5,20,51,46,933906,1082894,16747474,29198,16746220,16751304,27613,6510,Tag0,unknown
1499247408393,0,-308,-6.767578125E-5,20,51,46,933906,1082894,16747474,29198,16746220,16751304,27613,6510,Tag0,unknown
1499247408393,0,86,1.8896484375000003E-5,20,51,46,933906,1082894,16747474,29198,16746220,16751304,27613,6510,Tag0,unknown
1499247408394,0,107,2.35107421875E-5,20,51,46,933906,1082894,16747474,29198,16746220,16751304,27613,6510,Tag0,unknown
1499247408394,0,87,1.91162109375E-5,20,51,46,933906,1082894,16747474,29198,16746220,16751304,27613,6510,Tag0,unknown
1499247408395,0,-92,-2.021484375E-5,20,51,46,933906,1082894,16747474,29198,16746220,16751304,27613,6510,Tag0,unknown
1499247408395,0,-128,-2.8125E-5,20,51,46,933906,1082894,16747474,29198,16746220,16751304,27613,6510,Tag0,unknown
1499247408396,0,22,4.833984375E-6,20,51,46,933906,1082894,16747474,29198,16746220,16751304,27613,6510,Tag0,unknown
1499247408396,0,67,1.4721679687500002E-5,20,51,46,933906,1082894,16747474,29198,16746220,16751304,27613,6510,Tag0,unknown
1499247408397,0,-64,-1.40625E-5,20,51,46,933906,1082894,16747474,29198,16746220,16751304,27613,6510,Tag0,unknown
1499247408398,0,329,7.229003906250001E-5,20,51,46,933906,1082894,16747474,29198,16746220,16751304,27613,6510,Tag0,unknown
1499247408398,0,-68,-1.4941406250000001E-5,20,51,46,933906,1082894,16747474,29198,16746220,16751304,27613,6510,Tag0,unknown
1499247408398,0,-345,-7.58056640625E-5,20,51,46,933906,1082894,16747474,29198,16746220,16751304,27613,6510,Tag0,unknown
1499247408399,0,-196,-4.306640625E-5,20,51,46,933906,1082894,16747474,29198,16746220,16751304,27613,6510,Tag0,unknown
1499247408399,0,-331,-7.272949218750001E-5,20,51,46,933906,1082894,16747474,29198,16746220,16751304,27613,6510,Tag0,unknown
1499247408399,0,34,7.4707031250000005E-6,20,51,46,933906,1082894,16747474,29198,16746220,16751304,27613,6510,Tag0,unknown
1499247408400,0,0,0.0,20,51,46,933906,1082894,16747474,29198,16746220,16751304,27613,6510,Tag0,unknown
1499247408400,0,8,1.7578125E-6,20,51,46,933906,1082894,16747474,29198,16746220,16751304,27613,6510,Tag0,unknown
1499247408400,0,-298,-6.5478515625E-5,20,51,46,933906,1082894,16747474,29198,16746220,16751304,27613,6510,Tag0,unknown
1499247408401,0,-182,-3.9990234375E-5,20,51,46,933906,1082894,16747474,29198,16746220,16751304,27613,6510,Tag0,unknown
1499247408401,0,-373,-8.19580078125E-5,20,51,46,933906,1082894,16747474,29198,16746220,16751304,27613,6510,Tag0,unknown
1499247408401,0,-118,-2.5927734375E-5,20,51,46,933906,1082894,16747474,29198,16746220,16751304,27613,6510,Tag0,unknown
1499247408402,0,-32,-7.03125E-6,20,51,46,933906,1082894,16747474,29198,16746220,16751304,27613,6510,Tag0,unknown
1499247408402,0,118,2.5927734375E-5,20,51,46,933906,1082894,16747474,29198,16746220,16751304,27613,6510,Tag0,unknown
1499247408402,0,-300,-6.591796875E-5,20,51,46,933906,1082894,16747474,29198,16746220,16751304,27613,6510,Tag0,unknown
1499247408403,0,-374,-8.2177734375E-5,20,51,46,933906,1082894,16747474,29198,16746220,16751304,27613,6510,Tag0,unknown
1499247408403,0,-258,-5.6689453125000004E-5,20,51,46,933906,1082894,16747474,29198,16746220,16751304,27613,6510,Tag0,unknown
1499247408404,0,-99,-2.1752929687500003E-5,20,51,46,933906,1082894,16747474,29198,16746220,16751304,27613,6510,Tag0,unknown
1499247408404,0,-5,-1.0986328125E-6,20,51,46,933906,1082894,16747474,29198,16746220,16751304,27613,6510,Tag0,unknown
1499247408405,0,-55,-1.20849609375E-5,20,51,46,933906,1082894,16747474,29198,16746220,16751304,27613,6510,Tag0,unknown
1499247408406,0,-281,-6.17431640625E-5,20,51,46,933906,1082894,16747474,29198,16746220,16751304,27613,6510,Tag0,unknown
1499247408407,0,-167,-3.6694335937500004E-5,20,51,46,933906,1082894,16747474,29198,16746220,16751304,27613,6510,Tag0,unknown
1499247408407,0,-374,-8.2177734375E-5,20,51,46,933906,1082894,16747474,29198,16746220,16751304,27613,6510,Tag0,unknown
1499247408408,0,-293,-6.43798828125E-5,20,51,46,933906,1082894,16747474,29198,16746220,16751304,27613,6510,Tag0,unknown
1499247408409,0,52,1.142578125E-5,20,51,46,933906,1082894,16747474,29198,16746220,16751304,27613,6510,Tag0,unknown
1499247408409,0,68,1.4941406250000001E-5,20,51,46,933906,1082894,16747474,29198,16746220,16751304,27613,6510,Tag0,unknown
1499247408410,0,97,2.13134765625E-5,20,51,46,933906,1082894,16747474,29198,16746220,16751304,27613,6510,Tag0,unknown
1499247408410,0,-110,-2.4169921875E-5,20,51,46,933906,1082894,16747474,29198,16746220,16751304,27613,6510,Tag0,unknown
1499247408411,0,22,4.833984375E-6,20,51,46,933906,1082894,16747474,29198,16746220,16751304,27613,6510,Tag0,unknown
1499247408411,0,-129,-2.8344726562500002E-5,20,51,46,933906,1082894,16747474,29198,16746220,16751304,27613,6510,Tag0,unknown
1499247408412,0,12,2.63671875E-6,20,51,46,933906,1082894,16747474,29198,16746220,16751304,27613,6510,Tag0,unknown
1499247408412,0,-48,-1.0546875E-5,20,51,46,933906,1082894,16747474,29198,16746220,16751304,27613,6510,Tag0,unknown
1499247408413,0,-122,-2.6806640625E-5,20,51,46,933906,1082894,16747474,29198,16746220,16751304,27613,6510,Tag0,unknown
1499247408413,0,73,1.6040039062500002E-5,20,51,46,933906,1082894,16747474,29198,16746220,16751304,27613,6510,Tag0,unknown
1499247408414,0,-46,-1.0107421875E-5,20,51,46,933906,1082894,16747474,29198,16746220,16751304,27613,6510,Tag0,unknown
1499247408415,0,261,5.73486328125E-5,20,51,46,933906,1082894,16747474,29198,16746220,16751304,27613,6510,Tag0,unknown
1499247408415,0,-94,-2.0654296875000002E-5,20,51,46,933906,1082894,16747474,29198,16746220,16751304,27613,6510,Tag0,unknown
1499247408416,0,-328,-7.207031249999999E-5,20,51,46,933906,1082894,16747474,29198,16746220,16751304,27613,6510,Tag0,unknown
1499247408416,0,-233,-5.1196289062500006E-5,20,51,46,933906,1082894,16747474,29198,16746220,16751304,27613,6510,Tag0,unknown
1499247408417,0,-300,-6.591796875E-5,20,51,46,933906,1082894,16747474,29198,16746220,16751304,27613,6510,Tag0,unknown
1499247408417,0,104,2.28515625E-5,20,51,46,933906,1082894,16747474,29198,16746220,16751304,27613,6510,Tag0,unknown
1499247408418,0,75,1.64794921875E-5,20,51,46,933906,1082894,16747474,29198,16746220,16751304,27613,6510,Tag0,unknown
1499247408418,0,60,1.318359375E-5,20,51,46,933906,1082894,16747474,29198,16746220,16751304,27613,6510,Tag0,unknown
1499247408419,0,59,1.29638671875E-5,20,51,46,933906,1082894,16747474,29198,16746220,16751304,27613,6510,Tag0,unknown
1499247408419,0,65,1.42822265625E-5,20,51,46,933906,1082894,16747474,29198,16746220,16751304,27613,6510,Tag0,unknown
1499247408420,0,66,1.4501953125E-5,20,51,46,933906,1082894,16747474,29198,16746220,16751304,27613,6510,Tag0,unknown
1499247408421,0,105,2.30712890625E-5,20,51,46,933906,1082894,16747474,29198,16746220,16751304,27613,6510,Tag0,unknown
1499247408421,0,77,1.69189453125E-5,20,51,46,933906,1082894,16747474,29198,16746220,16751304,27613,6510,Tag0,unknown
1499247408422,0,48,1.0546875E-5,20,51,46,933906,1082894,16747474,29198,16746220,16751304,27613,6510,Tag0,unknown
1499247408422,0,42,9.228515625000002E-6,20,51,46,933906,1082894,16747474,29198,16746220,16751304,27613,6510,Tag0,unknown
1499247408423,0,92,2.021484375E-5,20,51,46,933906,1082894,16747474,29198,16746220,16751304,27613,6510,Tag0,unknown
1499247408423,0,-73,-1.6040039062500002E-5,20,51,46,933906,1082894,16747474,29198,16746220,16751304,27613,6510,Tag0,unknown
1499247408424,0,-42,-9.228515625000002E-6,20,51,46,933906,1082894,16747474,29198,16746220,16751304,27613,6510,Tag0,unknown
1499247408425,0,120,2.63671875E-5,20,51,46,933906,1082894,16747474,29198,16746220,16751304,27613,6510,Tag0,unknown
1499247408426,0,84,1.8457031250000004E-5,20,51,46,933906,1082894,16747474,29198,16746220,16751304,27613,6510,Tag0,unknown
1499247408427,0,-125,-2.74658203125E-5,20,51,46,933906,1082894,16747474,29198,16746220,16751304,27613,6510,Tag0,unknown
1499247408427,0,82,1.8017578124999998E-5,20,51,46,933906,1082894,16747474,29198,16746220,16751304,27613,6510,Tag0,unknown
1499247408429,0,3,6.591796875E-7,20,51,46,933906,1082894,16747474,29198,16746220,16751304,27613,6510,Tag0,unknown
1499247408430,0,36,7.91015625E-6,20,51,46,933906,1082894,16747474,29198,16746220,16751304,27613,6510,Tag0,unknown
1499247408430,0,-118,-2.5927734375E-5,20,51,46,933906,1082894,16747474,29198,16746220,16751304,27613,6510,Tag0,unknown
1499247408431,0,-110,-2.4169921875E-5,20,51,46,933906,1082894,16747474,29198,16746220,16751304,27613,6510,Tag0,unknown
1499247408432,0,-332,-7.294921875E-5,20,51,46,933906,1082894,16747474,29198,16746220,16751304,27613,6510,Tag0,unknown
1499247408432,0,-177,-3.8891601562500006E-5,20,51,46,933906,1082894,16747474,29198,16746220,16751304,27613,6510,Tag0,unknown
1499247408433,0,24,5.2734375E-6,20,51,46,933906,1082894,16747474,29198,16746220,16751304,27613,6510,Tag0,unknown
1499247408433,0,-16,-3.515625E-6,20,51,46,933906,1082894,16747474,29198,16746220,16751304,27613,6510,Tag0,unknown
1499247408434,0,-26,-5.712890625E-6,20,51,46,933906,1082894,16747474,29198,16746220,16751304,27613,6510,Tag0,unknown
1499247408434,0,115,2.52685546875E-5,20,51,46,933906,1082894,16747474,29198,16746220,16751304,27613,6510,Tag0,unknown
1499247408434,0,124,2.724609375E-5,20,51,46,933906,1082894,16747474,29198,16746220,16751304,27613,6510,Tag0,unknown
1499247408435,0,72,1.58203125E-5,20,51,46,933906,1082894,16747474,29198,16746220,16751304,27613,6510,Tag0,unknown
1499247408435,0,-322,-7.0751953125E-5,20,51,46,933906,1082894,16747474,29198,16746220,16751304,27613,6510,Tag0,unknown
1499247408436,0,-267,-5.86669921875E-5,20,51,46,933906,1082894,16747474,29198,16746220,16751304,27613,6510,Tag0,unknown
1499247408437,0,66,1.4501953125E-5,20,51,46,933906,1082894,16747474,29198,16746220,16751304,27613,6510,Tag0,unknown
1499247408437,0,21,4.614257812500001E-6,20,51,46,933906,1082894,16747474,29198,16746220,16751304,27613,6510,Tag0,unknown
1499247408440,0,-313,-6.87744140625E-5,20,51,46,933906,1082894,16747474,29198,16746220,16751304,27613,6510,Tag0,unknown
1499247408440,0,-285,-6.26220703125E-5,20,51,46,933906,1082894,16747474,29198,16746220,16751304,27613,6510,Tag0,unknown
1499247408441,0,13,2.8564453125E-6,20,51,46,933906,1082894,16747474,29198,16746220,16751304,27613,6510,Tag0,unknown
1499247408441,0,51,1.1206054687499999E-5,20,51,46,933906,1082894,16747474,29198,16746220,16751304,27613,6510,Tag0,unknown
1499247408441,0,109,2.39501953125E-5,20,51,46,933906,1082894,16747474,29198,16746220,16751304,27613,6510,Tag0,unknown
1499247408443,0,75,1.64794921875E-5,20,51,46,933906,1082894,16747474,29198,16746220,16751304,27613,6510,Tag0,unknown
1499247408444,0,25,5.4931640625E-6,20,51,46,933906,1082894,16747474,29198,16746220,16751304,27613,6510,Tag0,unknown
1499247408444,0,-127,-2.79052734375E-5,20,51,46,933906,1082894,16747474,29198,16746220,16751304,27613,6510,Tag0,unknown
1499247408444,0,168,3.691406250000001E-5,20,51,46,933906,1082894,16747474,29198,16746220,16751304,27613,6510,Tag0,unknown
1499247408444,0,148,3.251953125E-5,20,51,46,933906,1082894,16747474,29198,16746220,16751304,27613,6510,Tag0,unknown
1499247408445,0,103,2.26318359375E-5,20,51,46,933906,1082894,16747474,29198,16746220,16751304,27613,6510,Tag0,unknown
1499247408445,0,-307,-6.74560546875E-5,20,51,46,933906,1082894,16747474,29198,16746220,16751304,27613,6510,Tag0,unknown
1499247408445,0,-258,-5.6689453125000004E-5,20,51,46,933906,1082894,16747474,29198,16746220,16751304,27613,6510,Tag0,unknown
1499247408446,0,99,2.1752929687500003E-5,20,51,46,933906,1082894,16747474,29198,16746220,16751304,27613,6510,Tag0,unknown
1499247408446,0,-123,-2.70263671875E-5,20,51,46,933906,1082894,16747474,29198,16746220,16751304,27613,6510,Tag0,unknown
1499247408446,0,96,2.109375E-5,20,51,46,933906,1082894,16747474,29198,16746220,16751304,27613,6510,Tag0,unknown
1499247408447,0,42,9.228515625000002E-6,20,51,46,933906,1082894,16747474,29198,16746220,16751304,27613,6510,Tag0,unknown
1499247408447,0,-126,-2.7685546875E-5,20,51,46,933906,1082894,16747474,29198,16746220,16751304,27613,6510,Tag0,unknown
1499247408447,0,-74,-1.6259765625E-5,20,51,46,933906,1082894,16747474,29198,16746220,16751304,27613,6510,Tag0,unknown
1499247408447,0,1,2.197265625E-7,20,51,46,933906,1082894,16747474,29198,16746220,16751304,27613,6510,Tag0,unknown
1499247408448,0,-296,-6.50390625E-5,20,51,46,933906,1082894,16747474,29198,16746220,16751304,27613,6510,Tag0,unknown
1499247408448,0,66,1.4501953125E-5,20,51,46,933906,1082894,16747474,29198,16746220,16751304,27613,6510,Tag0,unknown
1499247408448,0,-42,-9.228515625000002E-6,20,51,46,933906,1082894,16747474,29198,16746220,16751304,27613,6510,Tag0,unknown
1499247408448,0,103,2.26318359375E-5,20,51,46,933906,1082894,16747474,29198,16746220,16751304,27613,6510,Tag0,unknown
1499247408449,0,-323,-7.09716796875E-5,20,51,46,933906,1082894,16747474,29198,16746220,16751304,27613,6510,Tag0,unknown
1499247408449,0,-330,-7.2509765625E-5,20,51,46,933906,1082894,16747474,29198,16746220,16751304,27613,6510,Tag0,unknown
1499247408450,0,65,1.42822265625E-5,20,51,46,933906,1082894,16747474,29198,16746220,16751304,27613,6510,Tag0,unknown
1499247408450,0,-126,-2.7685546875E-5,20,51,46,933906,1082894,16747474,29198,16746220,16751304,27613,6510,Tag0,unknown
1499247408450,0,119,2.6147460937500004E-5,20,51,46,933906,1082894,16747474,29198,16746220,16751304,27613,6510,Tag0,unknown
1499247408450,0,114,2.5048828125000003E-5,20,51,46,933906,1082894,16747474,29198,16746220,16751304,27613,6510,Tag0,unknown
1499247408451,0,-127,-2.79052734375E-5,20,51,46,933906,1082894,16747474,29198,16746220,16751304,27613,6510,Tag0,unknown
1499247408451,0,41,9.008789062499999E-6,20,51,46,933906,1082894,16747474,29198,16746220,16751304,27613,6510,Tag0,unknown
1499247408451,0,112,2.4609375E-5,20,51,46,933906,1082894,16747474,29198,16746220,16751304,27613,6510,Tag0,unknown
1499247408451,0,-38,-8.349609375E-6,20,51,46,933906,1082894,16747474,29198,16746220,16751304,27613,6510,Tag0,unknown
1499247408452,0,-126,-2.7685546875E-5,20,51,46,933906,1082894,16747474,29198,16746220,16751304,27613,6510,Tag0,unknown
1499247408468,0,-282,-6.1962890625E-5,14,53,46,2052004,629581,118250,73341,16759715,67606,77310,5671,Tag0,unknown
1499247408468,0,-291,-6.39404296875E-5,14,53,46,2052004,629581,118250,73341,16759715,67606,77310,5671,Tag0,unknown
1499247408468,0,55,1.20849609375E-5,14,53,46,2052004,629581,118250,73341,16759715,67606,77310,5671,Tag0,unknown
1499247408469,0,96,2.109375E-5,14,53,46,2052004,629581,118250,73341,16759715,67606,77310,5671,Tag0,unknown
1499247408469,0,122,2.6806640625E-5,14,53,46,2052004,629581,118250,73341,16759715,67606,77310,5671,Tag0,unknown
1499247408469,0,-7,-1.5380859375E-6,14,53,46,2052004,629581,118250,73341,16759715,67606,77310,5671,Tag0,unknown
1499247408469,0,118,2.5927734375E-5,14,53,46,2052004,629581,118250,73341,16759715,67606,77310,5671,Tag0,unknown
1499247408470,0,-163,-3.5815429687500006E-5,14,53,46,2052004,629581,118250,73341,16759715,67606,77310,5671,Tag0,unknown
1499247408470,0,-132,-2.900390625E-5,14,53,46,2052004,629581,118250,73341,16759715,67606,77310,5671,Tag0,unknown
1499247408470,0,112,2.4609375E-5,14,53,46,2052004,629581,118250,73341,16759715,67606,77310,5671,Tag0,unknown
1499247408471,0,-77,-1.69189453125E-5,14,53,46,2052004,629581,118250,73341,16759715,67606,77310,5671,Tag0,unknown
1499247408471,0,112,2.4609375E-5,14,53,46,2052004,629581,118250,73341,16759715,67606,77310,5671,Tag0,unknown
1499247408471,0,101,2.2192382812500002E-5,14,53,46,2052004,629581,118250,73341,16759715,67606,77310,5671,Tag0,unknown
1499247408471,0,108,2.3730468750000002E-5,14,53,46,2052004,629581,118250,73341,16759715,67606,77310,5671,Tag0,unknown
1499247408472,0,89,1.95556640625E-5,14,53,46,2052004,629581,118250,73341,16759715,67606,77310,5671,Tag0,unknown
1499247408472,0,125,2.74658203125E-5,14,53,46,2052004,629581,118250,73341,16759715,67606,77310,5671,Tag0,unknown
1499247408472,0,-125,-2.74658203125E-5,14,53,46,2052004,629581,118250,73341,16759715,67606,77310,5671,Tag0,unknown
1499247408473,0,118,2.5927734375E-5,14,53,46,2052004,629581,118250,73341,16759715,67606,77310,5671,Tag0,unknown
1499247408473,0,-68,-1.4941406250000001E-5,14,53,46,2052004,629581,118250,73341,16759715,67606,77310,5671,Tag0,unknown
1499247408473,0,-10,-2.197265625E-6,14,53,46,2052004,629581,118250,73341,16759715,67606,77310,5671,Tag0,unknown
1499247408473,0,-78,-1.7138671875E-5,14,53,46,2052004,629581,118250,73341,16759715,67606,77310,5671,Tag0,unknown
1499247408474,0,26,5.712890625E-6,14,53,46,2052004,629581,118250,73341,16759715,67606,77310,5671,Tag0,unknown
1499247408474,0,11,2.4169921875E-6,14,53,46,2052004,629581,118250,73341,16759715,67606,77310,5671,Tag0,unknown
1499247408474,0,52,1.142578125E-5,14,53,46,2052004,629581,118250,73341,16759715,67606,77310,5671,Tag0,unknown
1499247408474,0,19,4.1748046875E-6,14,53,46,2052004,629581,118250,73341,16759715,67606,77310,5671,Tag0,unknown
1499247408475,0,-311,-6.833496093750001E-5,14,53,46,2052004,629581,118250,73341,16759715,67606,77310,5671,Tag0,unknown
1499247408475,0,-343,-7.53662109375E-5,14,53,46,2052004,629581,118250,73341,16759715,67606,77310,5671,Tag0,unknown
1499247408475,0,-297,-6.525878906250001E-5,14,53,46,2052004,629581,118250,73341,16759715,67606,77310,5671,Tag0,unknown
1499247408476,0,38,8.349609375E-6,14,53,46,2052004,629581,118250,73341,16759715,67606,77310,5671,Tag0,unknown
1499247408476,0,74,1.6259765625E-5,14,53,46,2052004,629581,118250,73341,16759715,67606,77310,5671,Tag0,unknown
1499247408476,0,57,1.2524414062500001E-5,14,53,46,2052004,629581,118250,73341,16759715,67606,77310,5671,Tag0,unknown
1499247408477,0,119,2.6147460937500004E-5,14,53,46,2052004,629581,118250,73341,16759715,67606,77310,5671,Tag0,unknown
1499247408477,0,256,5.625E-5,14,53,46,2052004,629581,118250,73341,16759715,67606,77310,5671,Tag0,unknown
1499247408477,0,-5,-1.0986328125E-6,14,53,46,2052004,629581,118250,73341,16759715,67606,77310,5671,Tag0,unknown
1499247408478,0,-126,-2.7685546875E-5,14,53,46,2052004,629581,118250,73341,16759715,67606,77310,5671,Tag0,unknown
