timestampMs,poorSignal,eegRawValue,eegRawValueVolts,attention,meditation,blinkStrength,delta,theta,alphaLow,alphaHigh,betaLow,betaHigh,gammaLow,gammaMid,tagEvent,location
1499247499997,0,40,8.7890625E-6,47,91,73,410272,254275,71004,16140,10990,16748508,9377,1493,Tag0,unknown
1499247499998,0,0,0.0,47,91,73,410272,254275,71004,16140,10990,16748508,9377,1493,Tag0,unknown
1499247499998,0,-259,-5.69091796875E-5,47,91,73,410272,254275,71004,16140,10990,16748508,9377,1493,Tag0,unknown
1499247499998,0,35,7.6904296875E-6,47,91,73,410272,254275,71004,16140,10990,16748508,9377,1493,Tag0,unknown
1499247499999,0,70,1.5380859375E-5,47,91,73,410272,254275,71004,16140,10990,16748508,9377,1493,Tag0,unknown
1499247499999,0,69,1.51611328125E-5,47,91,73,410272,254275,71004,16140,10990,16748508,9377,1493,Tag0,unknown
1499247499999,0,58,1.2744140625E-5,47,91,73,410272,254275,71004,16140,10990,16748508,9377,1493,Tag0,unknown
1499247500000,0,66,1.4501953125E-5,47,91,73,410272,254275,71004,16140,10990,16748508,9377,1493,Tag0,unknown
1499247500000,0,74,1.6259765625E-5,47,91,73,410272,254275,71004,16140,10990,16748508,9377,1493,Tag0,unknown
1499247500000,0,82,1.8017578124999998E-5,47,91,73,410272,254275,71004,16140,10990,16748508,9377,1493,Tag0,unknown
1499247500001,0,90,1.9775390625E-5,47,91,73,410272,254275,71004,16140,10990,16748508,9377,1493,Tag0,unknown
1499247500001,0,123,2.70263671875E-5,47,91,73,410272,254275,71004,16140,10990,16748508,9377,1493,Tag0,unknown
1499247500001,0,-109,-2.39501953125E-5,47,91,73,410272,254275,71004,16140,10990,16748508,9377,1493,Tag0,unknown
1499247500001,0,-124,-2.724609375E-5,47,91,73,410272,254275,71004,16140,10990,16748508,9377,1493,Tag0,unknown
1499247500002,0,-120,-2.63671875E-5,47,91,73,410272,254275,71004,16140,10990,16748508,9377,1493,Tag0,unknown
1499247500002,0,-105,-2.30712890625E-5,47,91,73,410272,254275,71004,16140,10990,16748508,9377,1493,Tag0,unknown
1499247500002,0,-111,-2.43896484375E-5,47,91,73,410272,254275,71004,16140,10990,16748508,9377,1493,Tag0,unknown
1499247500003,0,-128,-2.8125E-5,47,91,73,410272,254275,71004,16140,10990,16748508,9377,1493,Tag0,unknown
1499247500003,0,112,2.4609375E-5,47,91,73,410272,254275,71004,16140,10990,16748508,9377,1493,Tag0,unknown
1499247500003,0,106,2.3291015625000003E-5,47,91,73,410272,254275,71004,16140,10990,16748508,9377,1493,Tag0,unknown
1499247500004,0,93,2.04345703125E-5,47,91,73,410272,254275,71004,16140,10990,16748508,9377,1493,Tag0,unknown
1499247500004,0,42,9.228515625000002E-6,47,91,73,410272,254275,71004,16140,10990,16748508,9377,1493,Tag0,unknown
1499247500004,0,8,1.7578125E-6,47,91,73,410272,254275,71004,16140,10990,16748508,9377,1493,Tag0,unknown
1499247500004,0,28,6.15234375E-6,47,91,73,410272,254275,71004,16140,10990,16748508,9377,1493,Tag0,unknown
1499247500005,0,58,1.2744140625E-5,47,91,73,410272,254275,71004,16140,10990,16748508,9377,1493,Tag0,unknown
1499247500005,0,67,1.4721679687500002E-5,47,91,73,410272,254275,71004,16140,10990,16748508,9377,1493,Tag0,unknown
1499247500005,0,60,1.318359375E-5,47,91,73,410272,254275,71004,16140,10990,16748508,9377,1493,Tag0,unknown
1499247500006,0,64,1.40625E-5,47,91,73,410272,254275,71004,16140,10990,16748508,9377,1493,Tag0,unknown
1499247500006,0,68,1.4941406250000001E-5,47,91,73,410272,254275,71004,16140,10990,16748508,9377,1493,Tag0,unknown
1499247500006,0,72,1.58203125E-5,47,91,73,410272,254275,71004,16140,10990,16748508,9377,1493,Tag0,unknown
1499247500007,0,81,1.77978515625E-5,47,91,73,410272,254275,71004,16140,10990,16748508,9377,1493,Tag0,unknown
1499247500007,0,98,2.1533203125E-5,47,91,73,410272,254275,71004,16140,10990,16748508,9377,1493,Tag0,unknown
1499247500007,0,103,2.26318359375E-5,47,91,73,410272,254275,71004,16140,10990,16748508,9377,1493,Tag0,unknown
1499247500008,0,93,2.04345703125E-5,47,91,73,410272,254275,71004,16140,10990,16748508,9377,1493,Tag0,unknown
1499247500008,0,87,1.91162109375E-5,47,91,73,410272,254275,71004,16140,10990,16748508,9377,1493,Tag0,unknown
1499247500008,0,102,2.2412109374999998E-5,47,91,73,410272,254275,71004,16140,10990,16748508,9377,1493,Tag0,unknown
1499247500009,0,86,1.8896484375000003E-5,47,91,73,410272,254275,71004,16140,10990,16748508,9377,1493,Tag0,unknown
1499247500009,0,48,1.0546875E-5,47,91,73,410272,254275,71004,16140,10990,16748508,9377,1493,Tag0,unknown
1499247500009,0,27,5.9326171875000005E-6,47,91,73,410272,254275,71004,16140,10990,16748508,9377,1493,Tag0,unknown
1499247500010,0,52,1.142578125E-5,47,91,73,410272,254275,71004,16140,10990,16748508,9377,1493,Tag0,unknown
1499247500010,0,90,1.9775390625E-5,47,91,73,410272,254275,71004,16140,10990,16748508,9377,1493,Tag0,unknown
1499247500010,0,86,1.8896484375000003E-5,47,91,73,410272,254275,71004,16140,10990,16748508,9377,1493,Tag0,unknown
1499247500010,0,33,7.2509765625E-6,47,91,73,410272,254275,71004,16140,10990,16748508,9377,1493,Tag0,unknown
1499247500011,0,17,3.7353515625000003E-6,47,91,73,410272,254275,71004,16140,10990,16748508,9377,1493,Tag0,unknown
1499247500011,0,41,9.008789062499999E-6,47,91,73,410272,254275,71004,16140,10990,16748508,9377,1493,Tag0,unknown
1499247500011,0,83,1.82373046875E-5,47,91,73,410272,254275,71004,16140,10990,16748508,9377,1493,Tag0,unknown
1499247500012,0,105,2.30712890625E-5,47,91,73,410272,254275,71004,16140,10990,16748508,9377,1493,Tag0,unknown
1499247500012,0,90,1.9775390625E-5,47,91,73,410272,254275,71004,16140,10990,16748508,9377,1493,Tag0,unknown
1499247500012,0,71,1.56005859375E-5,47,91,73,410272,254275,71004,16140,10990,16748508,9377,1493,Tag0,unknown
1499247500013,0,73,1.6040039062500002E-5,47,91,73,410272,254275,71004,16140,10990,16748508,9377,1493,Tag0,unknown
1499247500013,0,97,2.13134765625E-5,47,91,73,410272,254275,71004,16140,10990,16748508,9377,1493,Tag0,unknown
1499247500013,0,105,2.30712890625E-5,47,91,73,410272,254275,71004,16140,10990,16748508,9377,1493,Tag0,unknown
1499247500013,0,82,1.8017578124999998E-5,47,91,73,410272,254275,71004,16140,10990,16748508,9377,1493,Tag0,unknown
1499247500014,0,33,7.2509765625E-6,47,91,73,410272,254275,71004,16140,10990,16748508,9377,1493,Tag0,unknown
1499247500014,0,12,2.63671875E-6,47,91,73,410272,254275,71004,16140,10990,16748508,9377,1493,Tag0,unknown
1499247500014,0,37,8.1298828125E-6,47,91,73,410272,254275,71004,16140,10990,16748508,9377,1493,Tag0,unknown
1499247500015,0,65,1.42822265625E-5,47,91,73,410272,254275,71004,16140,10990,16748508,9377,1493,Tag0,unknown
1499247500015,0,75,1.64794921875E-5,47,91,73,410272,254275,71004,16140,10990,16748508,9377,1493,Tag0,unknown
1499247500015,0,42,9.228515625000002E-6,47,91,73,410272,254275,71004,16140,10990,16748508,9377,1493,Tag0,unknown
1499247500016,0,-259,-5.69091796875E-5,47,91,73,410272,254275,71004,16140,10990,16748508,9377,1493,Tag0,unknown
1499247500016,0,-257,-5.64697265625E-5,47,91,73,410272,254275,71004,16140,10990,16748508,9377,1493,Tag0,unknown
1499247500016,0,34,7.4707031250000005E-6,47,91,73,410272,254275,71004,16140,10990,16748508,9377,1493,Tag0,unknown
1499247500017,0,52,1.142578125E-5,47,91,73,410272,254275,71004,16140,10990,16748508,9377,1493,Tag0,unknown
1499247500017,0,38,8.349609375E-6,47,91,73,410272,254275,71004,16140,10990,16748508,9377,1493,Tag0,unknown
1499247500017,0,38,8.349609375E-6,47,91,73,410272,254275,71004,16140,10990,16748508,9377,1493,Tag0,unknown
1499247500018,0,59,1.29638671875E-5,47,91,73,410272,254275,71004,16140,10990,16748508,9377,1493,Tag0,unknown
1499247500018,0,88,1.93359375E-5,47,91,73,410272,254275,71004,16140,10990,16748508,9377,1493,Tag0,unknown
1499247500018,0,76,1.669921875E-5,47,91,73,410272,254275,71004,16140,10990,16748508,9377,1493,Tag0,unknown
1499247500019,0,67,1.4721679687500002E-5,47,91,73,410272,254275,71004,16140,10990,16748508,9377,1493,Tag0,unknown
1499247500019,0,83,1.82373046875E-5,47,91,73,410272,254275,71004,16140,10990,16748508,9377,1493,Tag0,unknown
1499247500019,0,107,2.35107421875E-5,47,91,73,410272,254275,71004,16140,10990,16748508,9377,1493,Tag0,unknown
1499247500020,0,124,2.724609375E-5,47,91,73,410272,254275,71004,16140,10990,16748508,9377,1493,Tag0,unknown
1499247500020,0,-127,-2.79052734375E-5,47,91,73,410272,254275,71004,16140,10990,16748508,9377,1493,Tag0,unknown
1499247500020,0,120,2.63671875E-5,47,91,73,410272,254275,71004,16140,10990,16748508,9377,1493,Tag0,unknown
1499247500021,0,-126,-2.7685546875E-5,47,91,73,410272,254275,71004,16140,10990,16748508,9377,1493,Tag0,unknown
1499247500021,0,-93,-2.04345703125E-5,47,91,73,410272,254275,71004,16140,10990,16748508,9377,1493,Tag0,unknown
1499247500022,0,-87,-1.91162109375E-5,47,91,73,410272,254275,71004,16140,10990,16748508,9377,1493,Tag0,unknown
1499247500022,0,-91,-1.99951171875E-5,47,91,73,410272,254275,71004,16140,10990,16748508,9377,1493,Tag0,unknown
1499247500022,0,-90,-1.9775390625E-5,47,91,73,410272,254275,71004,16140,10990,16748508,9377,1493,Tag0,unknown
1499247500023,0,-87,-1.91162109375E-5,47,91,73,410272,254275,71004,16140,10990,16748508,9377,1493,Tag0,unknown
1499247500023,0,-76,-1.669921875E-5,47,91,73,410272,254275,71004,16140,10990,16748508,9377,1493,Tag0,unknown
1499247500023,0,-86,-1.8896484375000003E-5,47,91,73,410272,254275,71004,16140,10990,16748508,9377,1493,Tag0,unknown
1499247500024,0,-116,-2.548828125E-5,47,91,73,410272,254275,71004,16140,10990,16748508,9377,1493,Tag0,unknown
1499247500024,0,-128,-2.8125E-5,47,91,73,410272,254275,71004,16140,10990,16748508,9377,1493,Tag0,unknown
1499247500024,0,122,2.6806640625E-5,47,91,73,410272,254275,71004,16140,10990,16748508,9377,1493,Tag0,unknown
1499247500025,0,102,2.2412109374999998E-5,47,91,73,410272,254275,71004,16140,10990,16748508,9377,1493,Tag0,unknown
1499247500025,0,76,1.669921875E-5,47,91,73,410272,254275,71004,16140,10990,16748508,9377,1493,Tag0,unknown
1499247500026,0,68,1.4941406250000001E-5,47,91,73,410272,254275,71004,16140,10990,16748508,9377,1493,Tag0,unknown
1499247500026,0,90,1.9775390625E-5,47,91,73,410272,254275,71004,16140,10990,16748508,9377,1493,Tag0,unknown
1499247500027,0,-107,-2.35107421875E-5,47,91,73,410272,254275,71004,16140,10990,16748508,9377,1493,Tag0,unknown
1499247500032,0,-69,-1.51611328125E-5,47,91,73,410272,254275,71004,16140,10990,16748508,9377,1493,Tag0,unknown
1499247500033,0,-62,-1.3623046875E-5,47,91,73,410272,254275,71004,16140,10990,16748508,9377,1493,Tag0,unknown
1499247500033,0,-64,-1.40625E-5,47,91,73,410272,254275,71004,16140,10990,16748508,9377,1493,Tag0,unknown
1499247500034,0,-54,-1.1865234375000001E-5,47,91,73,410272,254275,71004,16140,10990,16748508,9377,1493,Tag0,unknown
1499247500034,0,-52,-1.142578125E-5,47,91,73,410272,254275,71004,16140,10990,16748508,9377,1493,Tag0,unknown
1499247500034,0,-94,-2.0654296875000002E-5,47,91,73,410272,254275,71004,16140,10990,16748508,9377,1493,Tag0,unknown
1499247500035,0,123,2.70263671875E-5,47,91,73,410272,254275,71004,16140,10990,16748508,9377,1493,Tag0,unknown
1499247500035,0,-116,-2.548828125E-5,47,91,73,410272,254275,71004,16140,10990,16748508,9377,1493,Tag0,unknown
1499247500036,0,-88,-1.93359375E-5,47,91,73,410272,254275,71004,16140,10990,16748508,9377,1493,Tag0,unknown
1499247500036,0,-95,-2.08740234375E-5,47,91,73,410272,254275,71004,16140,10990,16748508,9377,1493,Tag0,unknown
1499247500037,0,-127,-2.79052734375E-5,47,91,73,410272,254275,71004,16140,10990,16748508,9377,1493,Tag0,unknown
1499247500037,0,102,2.2412109374999998E-5,47,91,73,410272,254275,71004,16140,10990,16748508,9377,1493,Tag0,unknown
1499247500037,0,98,2.1533203125E-5,47,91,73,410272,254275,71004,16140,10990,16748508,9377,1493,Tag0,unknown
1499247500038,0,121,2.6586914062500003E-5,47,91,73,410272,254275,71004,16140,10990,16748508,9377,1493,Tag0,unknown
1499247500038,0,-112,-2.4609375E-5,47,91,73,410272,254275,71004,16140,10990,16748508,9377,1493,Tag0,unknown
1499247500039,0,-126,-2.7685546875E-5,47,91,73,410272,254275,71004,16140,10990,16748508,9377,1493,Tag0,unknown
1499247500039,0,117,2.5708007812499998E-5,47,91,73,410272,254275,71004,16140,10990,16748508,9377,1493,Tag0,unknown
1499247500039,0,99,2.1752929687500003E-5,47,91,73,410272,254275,71004,16140,10990,16748508,9377,1493,Tag0,unknown
1499247500040,0,98,2.1533203125E-5,47,91,73,410272,254275,71004,16140,10990,16748508,9377,1493,Tag0,unknown
1499247500040,0,115,2.52685546875E-5,47,91,73,410272,254275,71004,16140,10990,16748508,9377,1493,Tag0,unknown
1499247500041,0,117,2.5708007812499998E-5,47,91,73,410272,254275,71004,16140,10990,16748508,9377,1493,Tag0,unknown
1499247500041,0,96,2.109375E-5,47,91,73,410272,254275,71004,16140,10990,16748508,9377,1493,Tag0,unknown
1499247500042,0,83,1.82373046875E-5,47,91,73,410272,254275,71004,16140,10990,16748508,9377,1493,Tag0,unknown
1499247500042,0,102,2.2412109374999998E-5,47,91,73,410272,254275,71004,16140,10990,16748508,9377,1493,Tag0,unknown
1499247500043,0,115,2.52685546875E-5,47,91,73,410272,254275,71004,16140,10990,16748508,9377,1493,Tag0,unknown
1499247500043,0,-120,-2.63671875E-5,47,91,73,410272,254275,71004,16140,10990,16748508,9377,1493,Tag0,unknown
1499247500043,0,-91,-1.99951171875E-5,47,91,73,410272,254275,71004,16140,10990,16748508,9377,1493,Tag0,unknown
1499247500044,0,-107,-2.35107421875E-5,47,91,73,410272,254275,71004,16140,10990,16748508,9377,1493,Tag0,unknown
1499247500044,0,119,2.6147460937500004E-5,47,91,73,410272,254275,71004,16140,10990,16748508,9377,1493,Tag0,unknown
1499247500044,0,108,2.3730468750000002E-5,47,91,73,410272,254275,71004,16140,10990,16748508,9377,1493,Tag0,unknown
1499247500054,0,114,2.5048828125000003E-5,47,91,73,410272,254275,71004,16140,10990,16748508,9377,1493,Tag0,unknown
1499247500055,0,104,2.28515625E-5,47,91,73,410272,254275,71004,16140,10990,16748508,9377,1493,Tag0,unknown
1499247500063,0,84,1.8457031250000004E-5,47,91,73,410272,254275,71004,16140,10990,16748508,9377,1493,Tag0,unknown
1499247500063,0,75,1.64794921875E-5,47,91,73,410272,254275,71004,16140,10990,16748508,9377,1493,Tag0,unknown
1499247500064,0,88,1.93359375E-5,47,91,73,410272,254275,71004,16140,10990,16748508,9377,1493,Tag0,unknown
1499247500064,0,97,2.13134765625E-5,47,91,73,410272,254275,71004,16140,10990,16748508,9377,1493,Tag0,unknown
1499247500064,0,85,1.86767578125E-5,47,91,73,410272,254275,71004,16140,10990,16748508,9377,1493,Tag0,unknown
1499247500065,0,81,1.77978515625E-5,47,91,73,410272,254275,71004,16140,10990,16748508,9377,1493,Tag0,unknown
1499247500065,0,99,2.1752929687500003E-5,47,91,73,410272,254275,71004,16140,10990,16748508,9377,1493,Tag0,unknown
1499247500065,0,117,2.5708007812499998E-5,47,91,73,410272,254275,71004,16140,10990,16748508,9377,1493,Tag0,unknown
1499247500584,0,109,2.39501953125E-5,47,91,73,410272,254275,71004,16140,10990,16748508,9377,1493,Tag0,unknown
1499247500585,0,96,2.109375E-5,47,91,73,410272,254275,71004,16140,10990,16748508,9377,1493,Tag0,unknown
1499247500586,0,85,1.86767578125E-5,47,91,73,410272,254275,71004,16140,10990,16748508,9377,1493,Tag0,unknown
1499247500587,0,74,1.6259765625E-5,47,91,73,410272,254275,71004,16140,10990,16748508,9377,1493,Tag0,unknown
1499247500587,0,60,1.318359375E-5,47,91,73,410272,254275,71004,16140,10990,16748508,9377,1493,Tag0,unknown
1499247500588,0,39,8.5693359375E-6,47,91,73,410272,254275,71004,16140,10990,16748508,9377,1493,Tag0,unknown
1499247500589,0,38,8.349609375E-6,47,91,73,410272,254275,71004,16140,10990,16748508,9377,1493,Tag0,unknown
1499247500590,0,69,1.51611328125E-5,47,91,73,410272,254275,71004,16140,10990,16748508,9377,1493,Tag0,unknown
1499247500590,0,66,1.4501953125E-5,47,91,73,410272,254275,71004,16140,10990,16748508,9377,1493,Tag0,unknown
1499247500590,0,57,1.2524414062500001E-5,47,91,73,410272,254275,71004,16140,10990,16748508,9377,1493,Tag0,unknown
1499247500591,0,75,1.64794921875E-5,47,91,73,410272,254275,71004,16140,10990,16748508,9377,1493,Tag0,unknown
1499247500591,0,96,2.109375E-5,47,91,73,410272,254275,71004,16140,10990,16748508,9377,1493,Tag0,unknown
1499247500592,0,92,2.021484375E-5,47,91,73,410272,254275,71004,16140,10990,16748508,9377,1493,Tag0,unknown
1499247500592,0,58,1.2744140625E-5,47,91,73,410272,254275,71004,16140,10990,16748508,9377,1493,Tag0,unknown
1499247500593,0,39,8.5693359375E-6,47,91,73,410272,254275,71004,16140,10990,16748508,9377,1493,Tag0,unknown
1499247500594,0,50,1.0986328125E-5,47,91,73,410272,254275,71004,16140,10990,16748508,9377,1493,Tag0,unknown
1499247500594,0,34,7.4707031250000005E-6,47,91,73,410272,254275,71004,16140,10990,16748508,9377,1493,Tag0,unknown
1499247500594,0,16,3.515625E-6,47,91,73,410272,254275,71004,16140,10990,16748508,9377,1493,Tag0,unknown
1499247500596,0,33,7.2509765625E-6,47,91,73,410272,254275,71004,16140,10990,16748508,9377,1493,Tag0,unknown
1499247500596,0,43,9.448242187500001E-6,47,91,73,410272,254275,71004,16140,10990,16748508,9377,1493,Tag0,unknown
1499247500597,0,18,3.955078125E-6,47,91,73,410272,254275,71004,16140,10990,16748508,9377,1493,Tag0,unknown
1499247500598,0,-265,-5.82275390625E-5,47,91,73,410272,254275,71004,16140,10990,16748508,9377,1493,Tag0,unknown
1499247500598,0,-265,-5.82275390625E-5,47,91,73,410272,254275,71004,16140,10990,16748508,9377,1493,Tag0,unknown
1499247500599,0,20,4.39453125E-6,47,91,73,410272,254275,71004,16140,10990,16748508,9377,1493,Tag0,unknown
1499247500599,0,66,1.4501953125E-5,47,91,73,410272,254275,71004,16140,10990,16748508,9377,1493,Tag0,unknown
1499247500600,0,72,1.58203125E-5,47,91,73,410272,254275,71004,16140,10990,16748508,9377,1493,Tag0,unknown
1499247500600,0,55,1.20849609375E-5,47,91,73,410272,254275,71004,16140,10990,16748508,9377,1493,Tag0,unknown
1499247500601,0,25,5.4931640625E-6,47,91,73,410272,254275,71004,16140,10990,16748508,9377,1493,Tag0,unknown
1499247500601,0,17,3.7353515625000003E-6,47,91,73,410272,254275,71004,16140,10990,16748508,9377,1493,Tag0,unknown
1499247500601,0,21,4.614257812500001E-6,47,91,73,410272,254275,71004,16140,10990,16748508,9377,1493,Tag0,unknown
1499247500602,0,4,8.7890625E-7,47,91,73,410272,254275,71004,16140,10990,16748508,9377,1493,Tag0,unknown
1499247500602,0,3,6.591796875E-7,47,91,73,410272,254275,71004,16140,10990,16748508,9377,1493,Tag0,unknown
1499247500603,0,24,5.2734375E-6,47,91,73,410272,254275,71004,16140,10990,16748508,9377,1493,Tag0,unknown
1499247500603,0,49,1.07666015625E-5,47,91,73,410272,254275,71004,16140,10990,16748508,9377,1493,Tag0,unknown
1499247500603,0,85,1.86767578125E-5,47,91,73,410272,254275,71004,16140,10990,16748508,9377,1493,Tag0,unknown
1499247500604,0,90,1.9775390625E-5,47,91,73,410272,254275,71004,16140,10990,16748508,9377,1493,Tag0,unknown
1499247500604,0,65,1.42822265625E-5,47,91,73,410272,254275,71004,16140,10990,16748508,9377,1493,Tag0,unknown
1499247500605,0,48,1.0546875E-5,47,91,73,410272,254275,71004,16140,10990,16748508,9377,1493,Tag0,unknown
1499247500605,0,50,1.0986328125E-5,47,91,73,410272,254275,71004,16140,10990,16748508,9377,1493,Tag0,unknown
1499247500606,0,50,1.0986328125E-5,47,91,73,410272,254275,71004,16140,10990,16748508,9377,1493,Tag0,unknown
1499247500606,0,10,2.197265625E-6,47,91,73,410272,254275,71004,16140,10990,16748508,9377,1493,Tag0,unknown
1499247500606,0,-275,-6.04248046875E-5,47,91,73,410272,254275,71004,16140,10990,16748508,9377,1493,Tag0,unknown
1499247500607,0,-270,-5.9326171875E-5,47,91,73,410272,254275,71004,16140,10990,16748508,9377,1493,Tag0,unknown
1499247500607,0,-259,-5.69091796875E-5,47,91,73,410272,254275,71004,16140,10990,16748508,9377,1493,Tag0,unknown
1499247500608,0,17,3.7353515625000003E-6,47,91,73,410272,254275,71004,16140,10990,16748508,9377,1493,Tag0,unknown
1499247500608,0,18,3.955078125E-6,47,91,73,410272,254275,71004,16140,10990,16748508,9377,1493,Tag0,unknown
1499247500609,0,12,2.63671875E-6,47,91,73,410272,254275,71004,16140,10990,16748508,9377,1493,Tag0,unknown
1499247500609,0,10,2.197265625E-6,47,91,73,410272,254275,71004,16140,10990,16748508,9377,1493,Tag0,unknown
1499247500609,0,10,2.197265625E-6,47,91,73,410272,254275,71004,16140,10990,16748508,9377,1493,Tag0,unknown
1499247500609,0,33,7.2509765625E-6,47,91,73,410272,254275,71004,16140,10990,16748508,9377,1493,Tag0,unknown
1499247500610,0,68,1.4941406250000001E-5,47,91,73,410272,254275,71004,16140,10990,16748508,9377,1493,Tag0,unknown
1499247500610,0,99,2.1752929687500003E-5,47,91,73,410272,254275,71004,16140,10990,16748508,9377,1493,Tag0,unknown
1499247500610,0,98,2.1533203125E-5,47,91,73,410272,254275,71004,16140,10990,16748508,9377,1493,Tag0,unknown
1499247500611,0,33,7.2509765625E-6,47,91,73,410272,254275,71004,16140,10990,16748508,9377,1493,Tag0,unknown
1499247500611,0,-291,-6.39404296875E-5,47,91,73,410272,254275,71004,16140,10990,16748508,9377,1493,Tag0,unknown
1499247500612,0,-312,-6.85546875E-5,47,91,73,410272,254275,71004,16140,10990,16748508,9377,1493,Tag0,unknown
1499247500612,0,-297,-6.525878906250001E-5,47,91,73,410272,254275,71004,16140,10990,16748508,9377,1493,Tag0,unknown
1499247500612,0,-280,-6.15234375E-5,47,91,73,410272,254275,71004,16140,10990,16748508,9377,1493,Tag0,unknown
1499247500612,0,-276,-6.064453125E-5,47,91,73,410272,254275,71004,16140,10990,16748508,9377,1493,Tag0,unknown
1499247500613,0,-265,-5.82275390625E-5,47,91,73,410272,254275,71004,16140,10990,16748508,9377,1493,Tag0,unknown
1499247500613,0,8,1.7578125E-6,47,91,73,410272,254275,71004,16140,10990,16748508,9377,1493,Tag0,unknown
1499247500614,0,27,5.9326171875000005E-6,47,91,73,410272,254275,71004,16140,10990,16748508,9377,1493,Tag0,unknown
1499247500614,0,36,7.91015625E-6,47,91,73,410272,254275,71004,16140,10990,16748508,9377,1493,Tag0,unknown
1499247500614,0,45,9.8876953125E-6,47,91,73,410272,254275,71004,16140,10990,16748508,9377,1493,Tag0,unknown
1499247500615,0,48,1.0546875E-5,47,91,73,410272,254275,71004,16140,10990,16748508,9377,1493,Tag0,unknown
1499247500615,0,35,7.6904296875E-6,47,91,73,410272,254275,71004,16140,10990,16748508,9377,1493,Tag0,unknown
1499247500616,0,28,6.15234375E-6,47,91,73,410272,254275,71004,16140,10990,16748508,9377,1493,Tag0,unknown
1499247500616,0,26,5.712890625E-6,47,91,73,410272,254275,71004,16140,10990,16748508,9377,1493,Tag0,unknown
1499247500617,0,22,4.833984375E-6,47,91,73,410272,254275,71004,16140,10990,16748508,9377,1493,Tag0,unknown
1499247500617,0,32,7.03125E-6,47,91,73,410272,254275,71004,16140,10990,16748508,9377,1493,Tag0,unknown
1499247500617,0,40,8.7890625E-6,47,91,73,410272,254275,71004,16140,10990,16748508,9377,1493,Tag0,unknown
1499247500618,0,22,4.833984375E-6,47,91,73,410272,254275,71004,16140,10990,16748508,9377,1493,Tag0,unknown
1499247500618,0,12,2.63671875E-6,47,91,73,410272,254275,71004,16140,10990,16748508,9377,1493,Tag0,unknown
1499247500618,0,27,5.9326171875000005E-6,47,91,73,410272,254275,71004,16140,10990,16748508,9377,1493,Tag0,unknown
1499247500618,0,49,1.07666015625E-5,47,91,73,410272,254275,71004,16140,10990,16748508,9377,1493,Tag0,unknown
1499247500619,0,68,1.4941406250000001E-5,47,91,73,410272,254275,71004,16140,10990,16748508,9377,1493,Tag0,unknown
1499247500619,0,82,1.8017578124999998E-5,47,91,73,410272,254275,71004,16140,10990,16748508,9377,1493,Tag0,unknown
1499247500619,0,66,1.4501953125E-5,47,91,73,410272,254275,71004,16140,10990,16748508,9377,1493,Tag0,unknown
1499247500620,0,25,5.4931640625E-6,47,91,73,410272,254275,71004,16140,10990,16748508,9377,1493,Tag0,unknown
1499247500620,0,-262,-5.7568359375E-5,47,91,73,410272,254275,71004,16140,10990,16748508,9377,1493,Tag0,unknown
1499247500620,0,-261,-5.73486328125E-5,47,91,73,410272,254275,71004,16140,10990,16748508,9377,1493,Tag0,unknown
1499247500621,0,17,3.7353515625000003E-6,47,91,73,410272,254275,71004,16140,10990,16748508,9377,1493,Tag0,unknown
1499247500621,0,34,7.4707031250000005E-6,47,91,73,410272,254275,71004,16140,10990,16748508,9377,1493,Tag0,unknown
1499247500621,0,58,1.2744140625E-5,47,91,73,410272,254275,71004,16140,10990,16748508,9377,1493,Tag0,unknown
1499247500622,0,57,1.2524414062500001E-5,47,91,73,410272,254275,71004,16140,10990,16748508,9377,1493,Tag0,unknown
1499247500622,0,44,9.66796875E-6,47,91,73,410272,254275,71004,16140,10990,16748508,9377,1493,Tag0,unknown
1499247500623,0,51,1.1206054687499999E-5,47,91,73,410272,254275,71004,16140,10990,16748508,9377,1493,Tag0,unknown
1499247500623,0,52,1.142578125E-5,47,91,73,410272,254275,71004,16140,10990,16748508,9377,1493,Tag0,unknown
1499247500623,0,43,9.448242187500001E-6,47,91,73,410272,254275,71004,16140,10990,16748508,9377,1493,Tag0,unknown
1499247500624,0,48,1.0546875E-5,47,91,73,410272,254275,71004,16140,10990,16748508,9377,1493,Tag0,unknown
1499247500624,0,66,1.4501953125E-5,47,91,73,410272,254275,71004,16140,10990,16748508,9377,1493,Tag0,unknown
1499247500624,0,98,2.1533203125E-5,47,91,73,410272,254275,71004,16140,10990,16748508,9377,1493,Tag0,unknown
1499247500625,0,80,1.7578125E-5,47,91,73,410272,254275,71004,16140,10990,16748508,9377,1493,Tag0,unknown
1499247500625,0,24,5.2734375E-6,47,91,73,410272,254275,71004,16140,10990,16748508,9377,1493,Tag0,unknown
1499247500626,0,-260,-5.712890625E-5,47,91,73,410272,254275,71004,16140,10990,16748508,9377,1493,Tag0,unknown
1499247500627,0,-270,-5.9326171875E-5,47,91,73,410272,254275,71004,16140,10990,16748508,9377,1493,Tag0,unknown
1499247500627,0,-275,-6.04248046875E-5,47,91,73,410272,254275,71004,16140,10990,16748508,9377,1493,Tag0,unknown
1499247500628,0,-260,-5.712890625E-5,47,91,73,410272,254275,71004,16140,10990,16748508,9377,1493,Tag0,unknown
1499247500628,0,36,7.91015625E-6,47,91,73,410272,254275,71004,16140,10990,16748508,9377,1493,Tag0,unknown
1499247500629,0,64,1.40625E-5,47,91,73,410272,254275,71004,16140,10990,16748508,9377,1493,Tag0,unknown
1499247500629,0,65,1.42822265625E-5,47,91,73,410272,254275,71004,16140,10990,16748508,9377,1493,Tag0,unknown
1499247500629,0,40,8.7890625E-6,47,91,73,410272,254275,71004,16140,10990,16748508,9377,1493,Tag0,unknown
1499247500630,0,-258,-5.6689453125000004E-5,47,91,73,410272,254275,71004,16140,10990,16748508,9377,1493,Tag0,unknown
1499247500630,0,4,8.7890625E-7,47,91,73,410272,254275,71004,16140,10990,16748508,9377,1493,Tag0,unknown
1499247500631,0,51,1.1206054687499999E-5,47,91,73,410272,254275,71004,16140,10990,16748508,9377,1493,Tag0,unknown
1499247500631,0,72,1.58203125E-5,47,91,73,410272,254275,71004,16140,10990,16748508,9377,1493,Tag0,unknown
1499247500631,0,68,1.4941406250000001E-5,47,91,73,410272,254275,71004,16140,10990,16748508,9377,1493,Tag0,unknown
1499247500632,0,81,1.77978515625E-5,47,91,73,410272,254275,71004,16140,10990,16748508,9377,1493,Tag0,unknown
1499247500632,0,102,2.2412109374999998E-5,47,91,73,410272,254275,71004,16140,10990,16748508,9377,1493,Tag0,unknown
1499247500633,0,101,2.2192382812500002E-5,47,91,73,410272,254275,71004,16140,10990,16748508,9377,1493,Tag0,unknown
1499247500634,0,67,1.4721679687500002E-5,47,91,73,410272,254275,71004,16140,10990,16748508,9377,1493,Tag0,unknown
1499247500634,0,50,1.0986328125E-5,47,91,73,410272,254275,71004,16140,10990,16748508,9377,1493,Tag0,unknown
1499247500635,0,60,1.318359375E-5,47,91,73,410272,254275,71004,16140,10990,16748508,9377,1493,Tag0,unknown
1499247500635,0,69,1.51611328125E-5,47,91,73,410272,254275,71004,16140,10990,16748508,9377,1493,Tag0,unknown
1499247500636,0,75,1.64794921875E-5,47,91,73,410272,254275,71004,16140,10990,16748508,9377,1493,Tag0,unknown
1499247500637,0,70,1.5380859375E-5,47,91,73,410272,254275,71004,16140,10990,16748508,9377,1493,Tag0,unknown
1499247500637,0,38,8.349609375E-6,47,91,73,410272,254275,71004,16140,10990,16748508,9377,1493,Tag0,unknown
1499247500638,0,10,2.197265625E-6,47,91,73,410272,254275,71004,16140,10990,16748508,9377,1493,Tag0,unknown
1499247500638,0,25,5.4931640625E-6,47,91,73,410272,254275,71004,16140,10990,16748508,9377,1493,Tag0,unknown
1499247500638,0,58,1.2744140625E-5,47,91,73,410272,254275,71004,16140,10990,16748508,9377,1493,Tag0,unknown
1499247500639,0,92,2.021484375E-5,47,91,73,410272,254275,71004,16140,10990,16748508,9377,1493,Tag0,unknown
1499247500639,0,121,2.6586914062500003E-5,47,91,73,410272,254275,71004,16140,10990,16748508,9377,1493,Tag0,unknown
1499247500639,0,103,2.26318359375E-5,47,91,73,410272,254275,71004,16140,10990,16748508,9377,1493,Tag0,unknown
1499247500639,0,70,1.5380859375E-5,47,91,73,410272,254275,71004,16140,10990,16748508,9377,1493,Tag0,unknown
1499247500640,0,50,1.0986328125E-5,47,91,73,410272,254275,71004,16140,10990,16748508,9377,1493,Tag0,unknown
1499247500640,0,39,8.5693359375E-6,47,91,73,410272,254275,71004,16140,10990,16748508,9377,1493,Tag0,unknown
1499247500640,0,35,7.6904296875E-6,47,91,73,410272,254275,71004,16140,10990,16748508,9377,1493,Tag0,unknown
1499247500640,0,26,5.712890625E-6,47,91,73,410272,254275,71004,16140,10990,16748508,9377,1493,Tag0,unknown
1499247500641,0,36,7.91015625E-6,47,91,73,410272,254275,71004,16140,10990,16748508,9377,1493,Tag0,unknown
1499247500641,0,45,9.8876953125E-6,47,91,73,410272,254275,71004,16140,10990,16748508,9377,1493,Tag0,unknown
1499247500641,0,55,1.20849609375E-5,47,91,73,410272,254275,71004,16140,10990,16748508,9377,1493,Tag0,unknown
1499247500641,0,54,1.1865234375000001E-5,47,91,73,410272,254275,71004,16140,10990,16748508,9377,1493,Tag0,unknown
1499247500642,0,49,1.07666015625E-5,47,91,73,410272,254275,71004,16140,10990,16748508,9377,1493,Tag0,unknown
1499247500642,0,55,1.20849609375E-5,47,91,73,410272,254275,71004,16140,10990,16748508,9377,1493,Tag0,unknown
1499247500642,0,75,1.64794921875E-5,47,91,73,410272,254275,71004,16140,10990,16748508,9377,1493,Tag0,unknown
1499247500642,0,85,1.86767578125E-5,47,91,73,410272,254275,71004,16140,10990,16748508,9377,1493,Tag0,unknown
1499247500643,0,66,1.4501953125E-5,47,91,73,410272,254275,71004,16140,10990,16748508,9377,1493,Tag0,unknown
1499247500643,0,57,1.2524414062500001E-5,47,91,73,410272,254275,71004,16140,10990,16748508,9377,1493,Tag0,unknown
1499247500643,0,52,1.142578125E-5,47,91,73,410272,254275,71004,16140,10990,16748508,9377,1493,Tag0,unknown
1499247500643,0,43,9.448242187500001E-6,47,91,73,410272,254275,71004,16140,10990,16748508,9377,1493,Tag0,unknown
1499247500644,0,51,1.1206054687499999E-5,47,91,73,410272,254275,71004,16140,10990,16748508,9377,1493,Tag0,unknown
1499247500644,0,42,9.228515625000002E-6,47,91,73,410272,254275,71004,16140,10990,16748508,9377,1493,Tag0,unknown
1499247500644,0,11,2.4169921875E-6,47,91,73,410272,254275,71004,16140,10990,16748508,9377,1493,Tag0,unknown
1499247500644,0,5,1.0986328125E-6,47,91,73,410272,254275,71004,16140,10990,16748508,9377,1493,Tag0,unknown
1499247500645,0,23,5.0537109375E-6,47,91,73,410272,254275,71004,16140,10990,16748508,9377,1493,Tag0,unknown
1499247500645,0,48,1.0546875E-5,47,91,73,410272,254275,71004,16140,10990,16748508,9377,1493,Tag0,unknown
1499247500645,0,84,1.8457031250000004E-5,47,91,73,410272,254275,71004,16140,10990,16748508,9377,1493,Tag0,unknown
1499247500646,0,123,2.70263671875E-5,47,91,73,410272,254275,71004,16140,10990,16748508,9377,1493,Tag0,unknown
1499247500646,0,-118,-2.5927734375E-5,47,91,73,410272,254275,71004,16140,10990,16748508,9377,1493,Tag0,unknown
1499247500647,0,107,2.35107421875E-5,47,91,73,410272,254275,71004,16140,10990,16748508,9377,1493,Tag0,unknown
1499247500647,0,82,1.8017578124999998E-5,47,91,73,410272,254275,71004,16140,10990,16748508,9377,1493,Tag0,unknown
1499247500647,0,80,1.7578125E-5,47,91,73,410272,254275,71004,16140,10990,16748508,9377,1493,Tag0,unknown
1499247500648,0,85,1.86767578125E-5,47,91,73,410272,254275,71004,16140,10990,16748508,9377,1493,Tag0,unknown
1499247500648,0,97,2.13134765625E-5,47,91,73,410272,254275,71004,16140,10990,16748508,9377,1493,Tag0,unknown
1499247500648,0,91,1.99951171875E-5,47,91,73,410272,254275,71004,16140,10990,16748508,9377,1493,Tag0,unknown
1499247500648,0,90,1.9775390625E-5,47,91,73,410272,254275,71004,16140,10990,16748508,9377,1493,Tag0,unknown
1499247500649,0,113,2.48291015625E-5,47,91,73,410272,254275,71004,16140,10990,16748508,9377,1493,Tag0,unknown
1499247500649,0,115,2.52685546875E-5,47,91,73,410272,254275,71004,16140,10990,16748508,9377,1493,Tag0,unknown
1499247500649,0,90,1.9775390625E-5,47,91,73,410272,254275,71004,16140,10990,16748508,9377,1493,Tag0,unknown
1499247500649,0,92,2.021484375E-5,47,91,73,410272,254275,71004,16140,10990,16748508,9377,1493,Tag0,unknown
1499247500650,0,119,2.6147460937500004E-5,47,91,73,410272,254275,71004,16140,10990,16748508,9377,1493,Tag0,unknown
1499247500650,0,124,2.724609375E-5,47,91,73,410272,254275,71004,16140,10990,16748508,9377,1493,Tag0,unknown
1499247500650,0,98,2.1533203125E-5,47,91,73,410272,254275,71004,16140,10990,16748508,9377,1493,Tag0,unknown
1499247500650,0,70,1.5380859375E-5,47,91,73,410272,254275,71004,16140,10990,16748508,9377,1493,Tag0,unknown
1499247500651,0,74,1.6259765625E-5,47,91,73,410272,254275,71004,16140,10990,16748508,9377,1493,Tag0,unknown
1499247500651,0,97,2.13134765625E-5,47,91,73,410272,254275,71004,16140,10990,16748508,9377,1493,Tag0,unknown
1499247500651,0,97,2.13134765625E-5,47,91,73,410272,254275,71004,16140,10990,16748508,9377,1493,Tag0,unknown
1499247500651,0,69,1.51611328125E-5,47,91,73,410272,254275,71004,16140,10990,16748508,9377,1493,Tag0,unknown
1499247500652,0,59,1.29638671875E-5,47,91,73,410272,254275,71004,16140,10990,16748508,9377,1493,Tag0,unknown
1499247500652,0,65,1.42822265625E-5,47,91,73,410272,254275,71004,16140,10990,16748508,9377,1493,Tag0,unknown
1499247500653,0,65,1.42822265625E-5,47,91,73,410272,254275,71004,16140,10990,16748508,9377,1493,Tag0,unknown
1499247500653,0,53,1.1645507812500002E-5,47,91,73,410272,254275,71004,16140,10990,16748508,9377,1493,Tag0,unknown
1499247500653,0,50,1.0986328125E-5,47,91,73,410272,254275,71004,16140,10990,16748508,9377,1493,Tag0,unknown
1499247500653,0,60,1.318359375E-5,47,91,73,410272,254275,71004,16140,10990,16748508,9377,1493,Tag0,unknown
1499247500654,0,59,1.29638671875E-5,47,91,73,410272,254275,71004,16140,10990,16748508,9377,1493,Tag0,unknown
1499247500654,0,54,1.1865234375000001E-5,47,91,73,410272,254275,71004,16140,10990,16748508,9377,1493,Tag0,unknown
1499247500654,0,67,1.4721679687500002E-5,47,91,73,410272,254275,71004,16140,10990,16748508,9377,1493,Tag0,unknown
1499247500654,0,91,1.99951171875E-5,47,91,73,410272,254275,71004,16140,10990,16748508,9377,1493,Tag0,unknown
1499247500655,0,121,2.6586914062500003E-5,47,91,73,410272,254275,71004,16140,10990,16748508,9377,1493,Tag0,unknown
1499247500655,0,122,2.6806640625E-5,47,91,73,410272,254275,71004,16140,10990,16748508,9377,1493,Tag0,unknown
1499247500655,0,107,2.35107421875E-5,47,91,73,410272,254275,71004,16140,10990,16748508,9377,1493,Tag0,unknown
1499247500656,0,104,2.28515625E-5,47,91,73,410272,254275,71004,16140,10990,16748508,9377,1493,Tag0,unknown
1499247500656,0,104,2.28515625E-5,47,91,73,410272,254275,71004,16140,10990,16748508,9377,1493,Tag0,unknown
1499247500656,0,93,2.04345703125E-5,47,91,73,410272,254275,71004,16140,10990,16748508,9377,1493,Tag0,unknown
1499247500657,0,80,1.7578125E-5,47,91,73,410272,254275,71004,16140,10990,16748508,9377,1493,Tag0,unknown
1499247500657,0,59,1.29638671875E-5,47,91,73,410272,254275,71004,16140,10990,16748508,9377,1493,Tag0,unknown
1499247500657,0,57,1.2524414062500001E-5,47,91,73,410272,254275,71004,16140,10990,16748508,9377,1493,Tag0,unknown
1499247500657,0,77,1.69189453125E-5,47,91,73,410272,254275,71004,16140,10990,16748508,9377,1493,Tag0,unknown
1499247500658,0,102,2.2412109374999998E-5,47,91,73,410272,254275,71004,16140,10990,16748508,9377,1493,Tag0,unknown
1499247500658,0,102,2.2412109374999998E-5,47,91,73,410272,254275,71004,16140,10990,16748508,9377,1493,Tag0,unknown
1499247500658,0,82,1.8017578124999998E-5,47,91,73,410272,254275,71004,16140,10990,16748508,9377,1493,Tag0,unknown
1499247500658,0,71,1.56005859375E-5,47,91,73,410272,254275,71004,16140,10990,16748508,9377,1493,Tag0,unknown
1499247500659,0,88,1.93359375E-5,47,91,73,410272,254275,71004,16140,10990,16748508,9377,1493,Tag0,unknown
1499247500659,0,74,1.6259765625E-5,47,91,73,410272,254275,71004,16140,10990,16748508,9377,1493,Tag0,unknown
1499247500659,0,44,9.66796875E-6,47,91,73,410272,254275,71004,16140,10990,16748508,9377,1493,Tag0,unknown
1499247500659,0,50,1.0986328125E-5,47,91,73,410272,254275,71004,16140,10990,16748508,9377,1493,Tag0,unknown
1499247500660,0,57,1.2524414062500001E-5,47,91,73,410272,254275,71004,16140,10990,16748508,9377,1493,Tag0,unknown
1499247500660,0,48,1.0546875E-5,47,91,73,410272,254275,71004,16140,10990,16748508,9377,1493,Tag0,unknown
1499247500660,0,51,1.1206054687499999E-5,47,91,73,410272,254275,71004,16140,10990,16748508,9377,1493,Tag0,unknown
1499247500660,0,60,1.318359375E-5,47,91,73,410272,254275,71004,16140,10990,16748508,9377,1493,Tag0,unknown
1499247500661,0,57,1.2524414062500001E-5,47,91,73,410272,254275,71004,16140,10990,16748508,9377,1493,Tag0,unknown
1499247500661,0,39,8.5693359375E-6,47,91,73,410272,254275,71004,16140,10990,16748508,9377,1493,Tag0,unknown
1499247500661,0,27,5.9326171875000005E-6,47,91,73,410272,254275,71004,16140,10990,16748508,9377,1493,Tag0,unknown
1499247500661,0,51,1.1206054687499999E-5,47,91,73,410272,254275,71004,16140,10990,16748508,9377,1493,Tag0,unknown
1499247500662,0,67,1.4721679687500002E-5,47,91,73,410272,254275,71004,16140,10990,16748508,9377,1493,Tag0,unknown
1499247500662,0,81,1.77978515625E-5,47,91,73,410272,254275,71004,16140,10990,16748508,9377,1493,Tag0,unknown
1499247500662,0,67,1.4721679687500002E-5,47,91,73,410272,254275,71004,16140,10990,16748508,9377,1493,Tag0,unknown
1499247500662,0,38,8.349609375E-6,47,91,73,410272,254275,71004,16140,10990,16748508,9377,1493,Tag0,unknown
1499247500663,0,33,7.2509765625E-6,47,91,73,410272,254275,71004,16140,10990,16748508,9377,1493,Tag0,unknown
1499247500663,0,26,5.712890625E-6,47,91,73,410272,254275,71004,16140,10990,16748508,9377,1493,Tag0,unknown
1499247500663,0,25,5.4931640625E-6,47,91,73,410272,254275,71004,16140,10990,16748508,9377,1493,Tag0,unknown
1499247500663,0,37,8.1298828125E-6,47,91,73,410272,254275,71004,16140,10990,16748508,9377,1493,Tag0,unknown
1499247500664,0,21,4.614257812500001E-6,47,91,73,410272,254275,71004,16140,10990,16748508,9377,1493,Tag0,unknown
1499247500664,0,4,8.7890625E-7,47,91,73,410272,254275,71004,16140,10990,16748508,9377,1493,Tag0,unknown
1499247500664,0,21,4.614257812500001E-6,47,91,73,410272,254275,71004,16140,10990,16748508,9377,1493,Tag0,unknown
1499247500685,0,45,9.8876953125E-6,48,84,73,41539,23412,5554,3365,10101,9914,9280,9558,Tag0,unknown
1499247500685,0,58,1.2744140625E-5,48,84,73,41539,23412,5554,3365,10101,9914,9280,9558,Tag0,unknown
1499247500686,0,59,1.29638671875E-5,48,84,73,41539,23412,5554,3365,10101,9914,9280,9558,Tag0,unknown
1499247500686,0,58,1.2744140625E-5,48,84,73,41539,23412,5554,3365,10101,9914,9280,9558,Tag0,unknown
1499247500686,0,57,1.2524414062500001E-5,48,84,73,41539,23412,5554,3365,10101,9914,9280,9558,Tag0,unknown
1499247500687,0,60,1.318359375E-5,48,84,73,41539,23412,5554,3365,10101,9914,9280,9558,Tag0,unknown
1499247500687,0,68,1.4941406250000001E-5,48,84,73,41539,23412,5554,3365,10101,9914,9280,9558,Tag0,unknown
1499247500687,0,80,1.7578125E-5,48,84,73,41539,23412,5554,3365,10101,9914,9280,9558,Tag0,unknown
1499247500687,0,104,2.28515625E-5,48,84,73,41539,23412,5554,3365,10101,9914,9280,9558,Tag0,unknown
1499247500688,0,-123,-2.70263671875E-5,48,84,73,41539,23412,5554,3365,10101,9914,9280,9558,Tag0,unknown
1499247500688,0,-105,-2.30712890625E-5,48,84,73,41539,23412,5554,3365,10101,9914,9280,9558,Tag0,unknown
1499247500688,0,-125,-2.74658203125E-5,48,84,73,41539,23412,5554,3365,10101,9914,9280,9558,Tag0,unknown
1499247500688,0,91,1.99951171875E-5,48,84,73,41539,23412,5554,3365,10101,9914,9280,9558,Tag0,unknown
1499247500689,0,82,1.8017578124999998E-5,48,84,73,41539,23412,5554,3365,10101,9914,9280,9558,Tag0,unknown
1499247500689,0,106,2.3291015625000003E-5,48,84,73,41539,23412,5554,3365,10101,9914,9280,9558,Tag0,unknown
1499247500689,0,-124,-2.724609375E-5,48,84,73,41539,23412,5554,3365,10101,9914,9280,9558,Tag0,unknown
1499247500689,0,-122,-2.6806640625E-5,48,84,73,41539,23412,5554,3365,10101,9914,9280,9558,Tag0,unknown
1499247500690,0,124,2.724609375E-5,48,84,73,41539,23412,5554,3365,10101,9914,9280,9558,Tag0,unknown
1499247500690,0,123,2.70263671875E-5,48,84,73,41539,23412,5554,3365,10101,9914,9280,9558,Tag0,unknown
1499247500690,0,125,2.74658203125E-5,48,84,73,41539,23412,5554,3365,10101,9914,9280,9558,Tag0,unknown
1499247500690,0,99,2.1752929687500003E-5,48,84,73,41539,23412,5554,3365,10101,9914,9280,9558,Tag0,unknown
1499247500690,0,59,1.29638671875E-5,48,84,73,41539,23412,5554,3365,10101,9914,9280,9558,Tag0,unknown
1499247500691,0,52,1.142578125E-5,48,84,73,41539,23412,5554,3365,10101,9914,9280,9558,Tag0,unknown
1499247500691,0,68,1.4941406250000001E-5,48,84,73,41539,23412,5554,3365,10101,9914,9280,9558,Tag0,unknown
1499247500691,0,74,1.6259765625E-5,48,84,73,41539,23412,5554,3365,10101,9914,9280,9558,Tag0,unknown
1499247500691,0,67,1.4721679687500002E-5,48,84,73,41539,23412,5554,3365,10101,9914,9280,9558,Tag0,unknown
1499247500692,0,89,1.95556640625E-5,48,84,73,41539,23412,5554,3365,10101,9914,9280,9558,Tag0,unknown
1499247500692,0,100,2.197265625E-5,48,84,73,41539,23412,5554,3365,10101,9914,9280,9558,Tag0,unknown
1499247500692,0,70,1.5380859375E-5,48,84,73,41539,23412,5554,3365,10101,9914,9280,9558,Tag0,unknown
1499247500692,0,39,8.5693359375E-6,48,84,73,41539,23412,5554,3365,10101,9914,9280,9558,Tag0,unknown
1499247500693,0,38,8.349609375E-6,48,84,73,41539,23412,5554,3365,10101,9914,9280,9558,Tag0,unknown
1499247500693,0,58,1.2744140625E-5,48,84,73,41539,23412,5554,3365,10101,9914,9280,9558,Tag0,unknown
1499247500693,0,59,1.29638671875E-5,48,84,73,41539,23412,5554,3365,10101,9914,9280,9558,Tag0,unknown
1499247500694,0,33,7.2509765625E-6,48,84,73,41539,23412,5554,3365,10101,9914,9280,9558,Tag0,unknown
1499247500694,0,24,5.2734375E-6,48,84,73,41539,23412,5554,3365,10101,9914,9280,9558,Tag0,unknown
1499247500694,0,45,9.8876953125E-6,48,84,73,41539,23412,5554,3365,10101,9914,9280,9558,Tag0,unknown
1499247500694,0,59,1.29638671875E-5,48,84,73,41539,23412,5554,3365,10101,9914,9280,9558,Tag0,unknown
1499247500695,0,59,1.29638671875E-5,48,84,73,41539,23412,5554,3365,10101,9914,9280,9558,Tag0,unknown
1499247500695,0,50,1.0986328125E-5,48,84,73,41539,23412,5554,3365,10101,9914,9280,9558,Tag0,unknown
1499247500695,0,49,1.07666015625E-5,48,84,73,41539,23412,5554,3365,10101,9914,9280,9558,Tag0,unknown
1499247500696,0,67,1.4721679687500002E-5,48,84,73,41539,23412,5554,3365,10101,9914,9280,9558,Tag0,unknown
1499247500696,0,80,1.7578125E-5,48,84,73,41539,23412,5554,3365,10101,9914,9280,9558,Tag0,unknown
1499247500696,0,83,1.82373046875E-5,48,84,73,41539,23412,5554,3365,10101,9914,9280,9558,Tag0,unknown
1499247500697,0,82,1.8017578124999998E-5,48,84,73,41539,23412,5554,3365,10101,9914,9280,9558,Tag0,unknown
1499247500697,0,81,1.77978515625E-5,48,84,73,41539,23412,5554,3365,10101,9914,9280,9558,Tag0,unknown
1499247500697,0,81,1.77978515625E-5,48,84,73,41539,23412,5554,3365,10101,9914,9280,9558,Tag0,unknown
1499247500698,0,60,1.318359375E-5,48,84,73,41539,23412,5554,3365,10101,9914,9280,9558,Tag0,unknown
1499247500698,0,43,9.448242187500001E-6,48,84,73,41539,23412,5554,3365,10101,9914,9280,9558,Tag0,unknown
1499247500698,0,26,5.712890625E-6,48,84,73,41539,23412,5554,3365,10101,9914,9280,9558,Tag0,unknown
1499247500698,0,-258,-5.6689453125000004E-5,48,84,73,41539,23412,5554,3365,10101,9914,9280,9558,Tag0,unknown
1499247500699,0,-279,-6.13037109375E-5,48,84,73,41539,23412,5554,3365,10101,9914,9280,9558,Tag0,unknown
1499247500699,0,-275,-6.04248046875E-5,48,84,73,41539,23412,5554,3365,10101,9914,9280,9558,Tag0,unknown
1499247500699,0,0,0.0,48,84,73,41539,23412,5554,3365,10101,9914,9280,9558,Tag0,unknown
1499247500700,0,23,5.0537109375E-6,48,84,73,41539,23412,5554,3365,10101,9914,9280,9558,Tag0,unknown
1499247500700,0,28,6.15234375E-6,48,84,73,41539,23412,5554,3365,10101,9914,9280,9558,Tag0,unknown
1499247500700,0,18,3.955078125E-6,48,84,73,41539,23412,5554,3365,10101,9914,9280,9558,Tag0,unknown
1499247500700,0,3,6.591796875E-7,48,84,73,41539,23412,5554,3365,10101,9914,9280,9558,Tag0,unknown
1499247500701,0,21,4.614257812500001E-6,48,84,73,41539,23412,5554,3365,10101,9914,9280,9558,Tag0,unknown
1499247500701,0,74,1.6259765625E-5,48,84,73,41539,23412,5554,3365,10101,9914,9280,9558,Tag0,unknown
1499247500701,0,116,2.548828125E-5,48,84,73,41539,23412,5554,3365,10101,9914,9280,9558,Tag0,unknown
1499247500701,0,106,2.3291015625000003E-5,48,84,73,41539,23412,5554,3365,10101,9914,9280,9558,Tag0,unknown
1499247500702,0,72,1.58203125E-5,48,84,73,41539,23412,5554,3365,10101,9914,9280,9558,Tag0,unknown
1499247500702,0,44,9.66796875E-6,48,84,73,41539,23412,5554,3365,10101,9914,9280,9558,Tag0,unknown
1499247500702,0,56,1.23046875E-5,48,84,73,41539,23412,5554,3365,10101,9914,9280,9558,Tag0,unknown
1499247500702,0,80,1.7578125E-5,48,84,73,41539,23412,5554,3365,10101,9914,9280,9558,Tag0,unknown
1499247500703,0,74,1.6259765625E-5,48,84,73,41539,23412,5554,3365,10101,9914,9280,9558,Tag0,unknown
1499247500703,0,67,1.4721679687500002E-5,48,84,73,41539,23412,5554,3365,10101,9914,9280,9558,Tag0,unknown
1499247500703,0,57,1.2524414062500001E-5,48,84,73,41539,23412,5554,3365,10101,9914,9280,9558,Tag0,unknown
1499247500703,0,53,1.1645507812500002E-5,48,84,73,41539,23412,5554,3365,10101,9914,9280,9558,Tag0,unknown
1499247500704,0,70,1.5380859375E-5,48,84,73,41539,23412,5554,3365,10101,9914,9280,9558,Tag0,unknown
1499247500704,0,91,1.99951171875E-5,48,84,73,41539,23412,5554,3365,10101,9914,9280,9558,Tag0,unknown
1499247500704,0,81,1.77978515625E-5,48,84,73,41539,23412,5554,3365,10101,9914,9280,9558,Tag0,unknown
1499247500705,0,42,9.228515625000002E-6,48,84,73,41539,23412,5554,3365,10101,9914,9280,9558,Tag0,unknown
1499247500705,0,29,6.3720703125E-6,48,84,73,41539,23412,5554,3365,10101,9914,9280,9558,Tag0,unknown
1499247500705,0,66,1.4501953125E-5,48,84,73,41539,23412,5554,3365,10101,9914,9280,9558,Tag0,unknown
1499247500705,0,91,1.99951171875E-5,48,84,73,41539,23412,5554,3365,10101,9914,9280,9558,Tag0,unknown
1499247500706,0,87,1.91162109375E-5,48,84,73,41539,23412,5554,3365,10101,9914,9280,9558,Tag0,unknown
1499247500706,0,77,1.69189453125E-5,48,84,73,41539,23412,5554,3365,10101,9914,9280,9558,Tag0,unknown
1499247500706,0,73,1.6040039062500002E-5,48,84,73,41539,23412,5554,3365,10101,9914,9280,9558,Tag0,unknown
1499247500707,0,85,1.86767578125E-5,48,84,73,41539,23412,5554,3365,10101,9914,9280,9558,Tag0,unknown
1499247500707,0,98,2.1533203125E-5,48,84,73,41539,23412,5554,3365,10101,9914,9280,9558,Tag0,unknown
1499247500707,0,97,2.13134765625E-5,48,84,73,41539,23412,5554,3365,10101,9914,9280,9558,Tag0,unknown
1499247500707,0,96,2.109375E-5,48,84,73,41539,23412,5554,3365,10101,9914,9280,9558,Tag0,unknown
1499247500719,0,105,2.30712890625E-5,48,84,73,41539,23412,5554,3365,10101,9914,9280,9558,Tag0,unknown
1499247500720,0,114,2.5048828125000003E-5,48,84,73,41539,23412,5554,3365,10101,9914,9280,9558,Tag0,unknown
1499247500721,0,104,2.28515625E-5,48,84,73,41539,23412,5554,3365,10101,9914,9280,9558,Tag0,unknown
1499247500721,0,72,1.58203125E-5,48,84,73,41539,23412,5554,3365,10101,9914,9280,9558,Tag0,unknown
1499247500721,0,42,9.228515625000002E-6,48,84,73,41539,23412,5554,3365,10101,9914,9280,9558,Tag0,unknown
1499247500722,0,40,8.7890625E-6,48,84,73,41539,23412,5554,3365,10101,9914,9280,9558,Tag0,unknown
1499247500722,0,59,1.29638671875E-5,48,84,73,41539,23412,5554,3365,10101,9914,9280,9558,Tag0,unknown
1499247500722,0,82,1.8017578124999998E-5,48,84,73,41539,23412,5554,3365,10101,9914,9280,9558,Tag0,unknown
1499247500723,0,83,1.82373046875E-5,48,84,73,41539,23412,5554,3365,10101,9914,9280,9558,Tag0,unknown
1499247500723,0,83,1.82373046875E-5,48,84,73,41539,23412,5554,3365,10101,9914,9280,9558,Tag0,unknown
1499247500723,0,100,2.197265625E-5,48,84,73,41539,23412,5554,3365,10101,9914,9280,9558,Tag0,unknown
1499247500724,0,109,2.39501953125E-5,48,84,73,41539,23412,5554,3365,10101,9914,9280,9558,Tag0,unknown
1499247500724,0,113,2.48291015625E-5,48,84,73,41539,23412,5554,3365,10101,9914,9280,9558,Tag0,unknown
1499247500724,0,112,2.4609375E-5,48,84,73,41539,23412,5554,3365,10101,9914,9280,9558,Tag0,unknown
1499247500725,0,90,1.9775390625E-5,48,84,73,41539,23412,5554,3365,10101,9914,9280,9558,Tag0,unknown
1499247500725,0,80,1.7578125E-5,48,84,73,41539,23412,5554,3365,10101,9914,9280,9558,Tag0,unknown
1499247500725,0,88,1.93359375E-5,48,84,73,41539,23412,5554,3365,10101,9914,9280,9558,Tag0,unknown
1499247500726,0,80,1.7578125E-5,48,84,73,41539,23412,5554,3365,10101,9914,9280,9558,Tag0,unknown
1499247500726,0,59,1.29638671875E-5,48,84,73,41539,23412,5554,3365,10101,9914,9280,9558,Tag0,unknown
1499247500727,0,54,1.1865234375000001E-5,48,84,73,41539,23412,5554,3365,10101,9914,9280,9558,Tag0,unknown
1499247500727,0,49,1.07666015625E-5,48,84,73,41539,23412,5554,3365,10101,9914,9280,9558,Tag0,unknown
1499247500727,0,50,1.0986328125E-5,48,84,73,41539,23412,5554,3365,10101,9914,9280,9558,Tag0,unknown
1499247500728,0,65,1.42822265625E-5,48,84,73,41539,23412,5554,3365,10101,9914,9280,9558,Tag0,unknown
1499247500728,0,86,1.8896484375000003E-5,48,84,73,41539,23412,5554,3365,10101,9914,9280,9558,Tag0,unknown
1499247500729,0,87,1.91162109375E-5,48,84,73,41539,23412,5554,3365,10101,9914,9280,9558,Tag0,unknown
1499247500729,0,67,1.4721679687500002E-5,48,84,73,41539,23412,5554,3365,10101,9914,9280,9558,Tag0,unknown
1499247500729,0,64,1.40625E-5,48,84,73,41539,23412,5554,3365,10101,9914,9280,9558,Tag0,unknown
1499247500730,0,71,1.56005859375E-5,48,84,73,41539,23412,5554,3365,10101,9914,9280,9558,Tag0,unknown
1499247500731,0,77,1.69189453125E-5,48,84,73,41539,23412,5554,3365,10101,9914,9280,9558,Tag0,unknown
1499247500731,0,82,1.8017578124999998E-5,48,84,73,41539,23412,5554,3365,10101,9914,9280,9558,Tag0,unknown
1499247500732,0,91,1.99951171875E-5,48,84,73,41539,23412,5554,3365,10101,9914,9280,9558,Tag0,unknown
1499247500732,0,114,2.5048828125000003E-5,48,84,73,41539,23412,5554,3365,10101,9914,9280,9558,Tag0,unknown
1499247500733,0,122,2.6806640625E-5,48,84,73,41539,23412,5554,3365,10101,9914,9280,9558,Tag0,unknown
1499247500733,0,105,2.30712890625E-5,48,84,73,41539,23412,5554,3365,10101,9914,9280,9558,Tag0,unknown
1499247500733,0,76,1.669921875E-5,48,84,73,41539,23412,5554,3365,10101,9914,9280,9558,Tag0,unknown
1499247500733,0,58,1.2744140625E-5,48,84,73,41539,23412,5554,3365,10101,9914,9280,9558,Tag0,unknown
1499247500734,0,53,1.1645507812500002E-5,48,84,73,41539,23412,5554,3365,10101,9914,9280,9558,Tag0,unknown
1499247500734,0,64,1.40625E-5,48,84,73,41539,23412,5554,3365,10101,9914,9280,9558,Tag0,unknown
1499247500734,0,81,1.77978515625E-5,48,84,73,41539,23412,5554,3365,10101,9914,9280,9558,Tag0,unknown
1499247500735,0,70,1.5380859375E-5,48,84,73,41539,23412,5554,3365,10101,9914,9280,9558,Tag0,unknown
1499247500735,0,38,8.349609375E-6,48,84,73,41539,23412,5554,3365,10101,9914,9280,9558,Tag0,unknown
1499247500735,0,28,6.15234375E-6,48,84,73,41539,23412,5554,3365,10101,9914,9280,9558,Tag0,unknown
1499247500736,0,61,1.34033203125E-5,48,84,73,41539,23412,5554,3365,10101,9914,9280,9558,Tag0,unknown
1499247500736,0,90,1.9775390625E-5,48,84,73,41539,23412,5554,3365,10101,9914,9280,9558,Tag0,unknown
1499247500737,0,88,1.93359375E-5,48,84,73,41539,23412,5554,3365,10101,9914,9280,9558,Tag0,unknown
1499247500737,0,71,1.56005859375E-5,48,84,73,41539,23412,5554,3365,10101,9914,9280,9558,Tag0,unknown
1499247500738,0,67,1.4721679687500002E-5,48,84,73,41539,23412,5554,3365,10101,9914,9280,9558,Tag0,unknown
1499247500738,0,69,1.51611328125E-5,48,84,73,41539,23412,5554,3365,10101,9914,9280,9558,Tag0,unknown
1499247500738,0,55,1.20849609375E-5,48,84,73,41539,23412,5554,3365,10101,9914,9280,9558,Tag0,unknown
1499247500739,0,43,9.448242187500001E-6,48,84,73,41539,23412,5554,3365,10101,9914,9280,9558,Tag0,unknown
1499247500739,0,40,8.7890625E-6,48,84,73,41539,23412,5554,3365,10101,9914,9280,9558,Tag0,unknown
1499247500739,0,48,1.0546875E-5,48,84,73,41539,23412,5554,3365,10101,9914,9280,9558,Tag0,unknown
1499247500740,0,50,1.0986328125E-5,48,84,73,41539,23412,5554,3365,10101,9914,9280,9558,Tag0,unknown
1499247500740,0,41,9.008789062499999E-6,48,84,73,41539,23412,5554,3365,10101,9914,9280,9558,Tag0,unknown
1499247500740,0,22,4.833984375E-6,48,84,73,41539,23412,5554,3365,10101,9914,9280,9558,Tag0,unknown
1499247500740,0,22,4.833984375E-6,48,84,73,41539,23412,5554,3365,10101,9914,9280,9558,Tag0,unknown
1499247500741,0,61,1.34033203125E-5,48,84,73,41539,23412,5554,3365,10101,9914,9280,9558,Tag0,unknown
1499247500741,0,108,2.3730468750000002E-5,48,84,73,41539,23412,5554,3365,10101,9914,9280,9558,Tag0,unknown
1499247500741,0,105,2.30712890625E-5,48,84,73,41539,23412,5554,3365,10101,9914,9280,9558,Tag0,unknown
1499247500742,0,68,1.4941406250000001E-5,48,84,73,41539,23412,5554,3365,10101,9914,9280,9558,Tag0,unknown
1499247500742,0,39,8.5693359375E-6,48,84,73,41539,23412,5554,3365,10101,9914,9280,9558,Tag0,unknown
1499247500742,0,27,5.9326171875000005E-6,48,84,73,41539,23412,5554,3365,10101,9914,9280,9558,Tag0,unknown
1499247500742,0,50,1.0986328125E-5,48,84,73,41539,23412,5554,3365,10101,9914,9280,9558,Tag0,unknown
1499247500743,0,87,1.91162109375E-5,48,84,73,41539,23412,5554,3365,10101,9914,9280,9558,Tag0,unknown
1499247500743,0,104,2.28515625E-5,48,84,73,41539,23412,5554,3365,10101,9914,9280,9558,Tag0,unknown
1499247500743,0,93,2.04345703125E-5,48,84,73,41539,23412,5554,3365,10101,9914,9280,9558,Tag0,unknown
1499247500744,0,80,1.7578125E-5,48,84,73,41539,23412,5554,3365,10101,9914,9280,9558,Tag0,unknown
1499247500744,0,83,1.82373046875E-5,48,84,73,41539,23412,5554,3365,10101,9914,9280,9558,Tag0,unknown
1499247500744,0,103,2.26318359375E-5,48,84,73,41539,23412,5554,3365,10101,9914,9280,9558,Tag0,unknown
1499247500744,0,-128,-2.8125E-5,48,84,73,41539,23412,5554,3365,10101,9914,9280,9558,Tag0,unknown
1499247500745,0,-120,-2.63671875E-5,48,84,73,41539,23412,5554,3365,10101,9914,9280,9558,Tag0,unknown
1499247500745,0,114,2.5048828125000003E-5,48,84,73,41539,23412,5554,3365,10101,9914,9280,9558,Tag0,unknown
1499247500745,0,80,1.7578125E-5,48,84,73,41539,23412,5554,3365,10101,9914,9280,9558,Tag0,unknown
1499247500746,0,80,1.7578125E-5,48,84,73,41539,23412,5554,3365,10101,9914,9280,9558,Tag0,unknown
1499247500746,0,102,2.2412109374999998E-5,48,84,73,41539,23412,5554,3365,10101,9914,9280,9558,Tag0,unknown
1499247500747,0,117,2.5708007812499998E-5,48,84,73,41539,23412,5554,3365,10101,9914,9280,9558,Tag0,unknown
1499247500747,0,-116,-2.548828125E-5,48,84,73,41539,23412,5554,3365,10101,9914,9280,9558,Tag0,unknown
1499247500751,0,-94,-2.0654296875000002E-5,48,84,73,41539,23412,5554,3365,10101,9914,9280,9558,Tag0,unknown
1499247500751,0,-124,-2.724609375E-5,48,84,73,41539,23412,5554,3365,10101,9914,9280,9558,Tag0,unknown
1499247500752,0,69,1.51611328125E-5,48,84,73,41539,23412,5554,3365,10101,9914,9280,9558,Tag0,unknown
1499247500752,0,36,7.91015625E-6,48,84,73,41539,23412,5554,3365,10101,9914,9280,9558,Tag0,unknown
1499247500752,0,52,1.142578125E-5,48,84,73,41539,23412,5554,3365,10101,9914,9280,9558,Tag0,unknown
1499247500753,0,82,1.8017578124999998E-5,48,84,73,41539,23412,5554,3365,10101,9914,9280,9558,Tag0,unknown
1499247500753,0,99,2.1752929687500003E-5,48,84,73,41539,23412,5554,3365,10101,9914,9280,9558,Tag0,unknown
1499247500754,0,92,2.021484375E-5,48,84,73,41539,23412,5554,3365,10101,9914,9280,9558,Tag0,unknown
1499247500754,0,80,1.7578125E-5,48,84,73,41539,23412,5554,3365,10101,9914,9280,9558,Tag0,unknown
1499247500754,0,69,1.51611328125E-5,48,84,73,41539,23412,5554,3365,10101,9914,9280,9558,Tag0,unknown
1499247500754,0,69,1.51611328125E-5,48,84,73,41539,23412,5554,3365,10101,9914,9280,9558,Tag0,unknown
1499247500755,0,84,1.8457031250000004E-5,48,84,73,41539,23412,5554,3365,10101,9914,9280,9558,Tag0,unknown
1499247500755,0,108,2.3730468750000002E-5,48,84,73,41539,23412,5554,3365,10101,9914,9280,9558,Tag0,unknown
1499247500755,0,117,2.5708007812499998E-5,48,84,73,41539,23412,5554,3365,10101,9914,9280,9558,Tag0,unknown
1499247500756,0,100,2.197265625E-5,48,84,73,41539,23412,5554,3365,10101,9914,9280,9558,Tag0,unknown
1499247500756,0,70,1.5380859375E-5,48,84,73,41539,23412,5554,3365,10101,9914,9280,9558,Tag0,unknown
1499247500757,0,49,1.07666015625E-5,48,84,73,41539,23412,5554,3365,10101,9914,9280,9558,Tag0,unknown
1499247500758,0,39,8.5693359375E-6,48,84,73,41539,23412,5554,3365,10101,9914,9280,9558,Tag0,unknown
1499247500758,0,36,7.91015625E-6,48,84,73,41539,23412,5554,3365,10101,9914,9280,9558,Tag0,unknown
1499247500759,0,35,7.6904296875E-6,48,84,73,41539,23412,5554,3365,10101,9914,9280,9558,Tag0,unknown
1499247501510,0,26,5.712890625E-6,48,84,73,41539,23412,5554,3365,10101,9914,9280,9558,Tag0,unknown
1499247501514,0,7,1.5380859375E-6,48,84,73,41539,23412,5554,3365,10101,9914,9280,9558,Tag0,unknown
1499247501514,0,0,0.0,48,84,73,41539,23412,5554,3365,10101,9914,9280,9558,Tag0,unknown
1499247501515,0,-260,-5.712890625E-5,48,84,73,41539,23412,5554,3365,10101,9914,9280,9558,Tag0,unknown
1499247501515,0,-279,-6.13037109375E-5,48,84,73,41539,23412,5554,3365,10101,9914,9280,9558,Tag0,unknown
1499247501516,0,-297,-6.525878906250001E-5,48,84,73,41539,23412,5554,3365,10101,9914,9280,9558,Tag0,unknown
1499247501516,0,-290,-6.3720703125E-5,48,84,73,41539,23412,5554,3365,10101,9914,9280,9558,Tag0,unknown
1499247501516,0,6,1.318359375E-6,48,84,73,41539,23412,5554,3365,10101,9914,9280,9558,Tag0,unknown
1499247501517,0,39,8.5693359375E-6,48,84,73,41539,23412,5554,3365,10101,9914,9280,9558,Tag0,unknown
1499247501517,0,29,6.3720703125E-6,48,84,73,41539,23412,5554,3365,10101,9914,9280,9558,Tag0,unknown
1499247501517,0,-260,-5.712890625E-5,48,84,73,41539,23412,5554,3365,10101,9914,9280,9558,Tag0,unknown
1499247501517,0,-283,-6.218261718750001E-5,48,84,73,41539,23412,5554,3365,10101,9914,9280,9558,Tag0,unknown
1499247501518,0,-273,-5.998535156250001E-5,48,84,73,41539,23412,5554,3365,10101,9914,9280,9558,Tag0,unknown
1499247501519,0,17,3.7353515625000003E-6,48,84,73,41539,23412,5554,3365,10101,9914,9280,9558,Tag0,unknown
1499247501519,0,57,1.2524414062500001E-5,48,84,73,41539,23412,5554,3365,10101,9914,9280,9558,Tag0,unknown
1499247501520,0,73,1.6040039062500002E-5,48,84,73,41539,23412,5554,3365,10101,9914,9280,9558,Tag0,unknown
1499247501520,0,86,1.8896484375000003E-5,48,84,73,41539,23412,5554,3365,10101,9914,9280,9558,Tag0,unknown
1499247501521,0,101,2.2192382812500002E-5,48,84,73,41539,23412,5554,3365,10101,9914,9280,9558,Tag0,unknown
1499247501521,0,91,1.99951171875E-5,48,84,73,41539,23412,5554,3365,10101,9914,9280,9558,Tag0,unknown
1499247501521,0,41,9.008789062499999E-6,48,84,73,41539,23412,5554,3365,10101,9914,9280,9558,Tag0,unknown
1499247501521,0,-266,-5.8447265625E-5,48,84,73,41539,23412,5554,3365,10101,9914,9280,9558,Tag0,unknown
1499247501522,0,4,8.7890625E-7,48,84,73,41539,23412,5554,3365,10101,9914,9280,9558,Tag0,unknown
1499247501522,0,64,1.40625E-5,48,84,73,41539,23412,5554,3365,10101,9914,9280,9558,Tag0,unknown
1499247501522,0,97,2.13134765625E-5,48,84,73,41539,23412,5554,3365,10101,9914,9280,9558,Tag0,unknown
1499247501523,0,84,1.8457031250000004E-5,48,84,73,41539,23412,5554,3365,10101,9914,9280,9558,Tag0,unknown
1499247501523,0,57,1.2524414062500001E-5,48,84,73,41539,23412,5554,3365,10101,9914,9280,9558,Tag0,unknown
1499247501523,0,57,1.2524414062500001E-5,48,84,73,41539,23412,5554,3365,10101,9914,9280,9558,Tag0,unknown
1499247501523,0,80,1.7578125E-5,48,84,73,41539,23412,5554,3365,10101,9914,9280,9558,Tag0,unknown
1499247501524,0,83,1.82373046875E-5,48,84,73,41539,23412,5554,3365,10101,9914,9280,9558,Tag0,unknown
1499247501524,0,69,1.51611328125E-5,48,84,73,41539,23412,5554,3365,10101,9914,9280,9558,Tag0,unknown
1499247501524,0,59,1.29638671875E-5,48,84,73,41539,23412,5554,3365,10101,9914,9280,9558,Tag0,unknown
1499247501524,0,61,1.34033203125E-5,48,84,73,41539,23412,5554,3365,10101,9914,9280,9558,Tag0,unknown
1499247501525,0,58,1.2744140625E-5,48,84,73,41539,23412,5554,3365,10101,9914,9280,9558,Tag0,unknown
1499247501525,0,43,9.448242187500001E-6,48,84,73,41539,23412,5554,3365,10101,9914,9280,9558,Tag0,unknown
1499247501525,0,18,3.955078125E-6,48,84,73,41539,23412,5554,3365,10101,9914,9280,9558,Tag0,unknown
1499247501526,0,-261,-5.73486328125E-5,48,84,73,41539,23412,5554,3365,10101,9914,9280,9558,Tag0,unknown
1499247501526,0,-276,-6.064453125E-5,48,84,73,41539,23412,5554,3365,10101,9914,9280,9558,Tag0,unknown
1499247501526,0,-279,-6.13037109375E-5,48,84,73,41539,23412,5554,3365,10101,9914,9280,9558,Tag0,unknown
1499247501527,0,-285,-6.26220703125E-5,48,84,73,41539,23412,5554,3365,10101,9914,9280,9558,Tag0,unknown
1499247501527,0,-302,-6.6357421875E-5,48,84,73,41539,23412,5554,3365,10101,9914,9280,9558,Tag0,unknown
1499247501527,0,-296,-6.50390625E-5,48,84,73,41539,23412,5554,3365,10101,9914,9280,9558,Tag0,unknown
1499247501527,0,-264,-5.80078125E-5,48,84,73,41539,23412,5554,3365,10101,9914,9280,9558,Tag0,unknown
1499247501528,0,9,1.9775390625E-6,48,84,73,41539,23412,5554,3365,10101,9914,9280,9558,Tag0,unknown
1499247501528,0,7,1.5380859375E-6,48,84,73,41539,23412,5554,3365,10101,9914,9280,9558,Tag0,unknown
1499247501528,0,10,2.197265625E-6,48,84,73,41539,23412,5554,3365,10101,9914,9280,9558,Tag0,unknown
1499247501528,0,26,5.712890625E-6,48,84,73,41539,23412,5554,3365,10101,9914,9280,9558,Tag0,unknown
1499247501529,0,50,1.0986328125E-5,48,84,73,41539,23412,5554,3365,10101,9914,9280,9558,Tag0,unknown
1499247501529,0,53,1.1645507812500002E-5,48,84,73,41539,23412,5554,3365,10101,9914,9280,9558,Tag0,unknown
1499247501529,0,28,6.15234375E-6,48,84,73,41539,23412,5554,3365,10101,9914,9280,9558,Tag0,unknown
1499247501529,0,-257,-5.64697265625E-5,48,84,73,41539,23412,5554,3365,10101,9914,9280,9558,Tag0,unknown
1499247501530,0,-301,-6.613769531250001E-5,48,84,73,41539,23412,5554,3365,10101,9914,9280,9558,Tag0,unknown
1499247501530,0,-342,-7.5146484375E-5,48,84,73,41539,23412,5554,3365,10101,9914,9280,9558,Tag0,unknown
1499247501530,0,-339,-7.448730468750001E-5,48,84,73,41539,23412,5554,3365,10101,9914,9280,9558,Tag0,unknown
1499247501530,0,-282,-6.1962890625E-5,48,84,73,41539,23412,5554,3365,10101,9914,9280,9558,Tag0,unknown
1499247501531,0,28,6.15234375E-6,48,84,73,41539,23412,5554,3365,10101,9914,9280,9558,Tag0,unknown
1499247501531,0,54,1.1865234375000001E-5,48,84,73,41539,23412,5554,3365,10101,9914,9280,9558,Tag0,unknown
1499247501531,0,50,1.0986328125E-5,48,84,73,41539,23412,5554,3365,10101,9914,9280,9558,Tag0,unknown
1499247501531,0,18,3.955078125E-6,48,84,73,41539,23412,5554,3365,10101,9914,9280,9558,Tag0,unknown
1499247501532,0,-265,-5.82275390625E-5,48,84,73,41539,23412,5554,3365,10101,9914,9280,9558,Tag0,unknown
1499247501532,0,-260,-5.712890625E-5,48,84,73,41539,23412,5554,3365,10101,9914,9280,9558,Tag0,unknown
1499247501532,0,38,8.349609375E-6,48,84,73,41539,23412,5554,3365,10101,9914,9280,9558,Tag0,unknown
1499247501533,0,81,1.77978515625E-5,48,84,73,41539,23412,5554,3365,10101,9914,9280,9558,Tag0,unknown
1499247501533,0,82,1.8017578124999998E-5,48,84,73,41539,23412,5554,3365,10101,9914,9280,9558,Tag0,unknown
1499247501533,0,48,1.0546875E-5,48,84,73,41539,23412,5554,3365,10101,9914,9280,9558,Tag0,unknown
1499247501533,0,28,6.15234375E-6,48,84,73,41539,23412,5554,3365,10101,9914,9280,9558,Tag0,unknown
1499247501534,0,40,8.7890625E-6,48,84,73,41539,23412,5554,3365,10101,9914,9280,9558,Tag0,unknown
1499247501534,0,55,1.20849609375E-5,48,84,73,41539,23412,5554,3365,10101,9914,9280,9558,Tag0,unknown
1499247501534,0,68,1.4941406250000001E-5,48,84,73,41539,23412,5554,3365,10101,9914,9280,9558,Tag0,unknown
1499247501534,0,82,1.8017578124999998E-5,48,84,73,41539,23412,5554,3365,10101,9914,9280,9558,Tag0,unknown
1499247501535,0,91,1.99951171875E-5,48,84,73,41539,23412,5554,3365,10101,9914,9280,9558,Tag0,unknown
1499247501535,0,96,2.109375E-5,48,84,73,41539,23412,5554,3365,10101,9914,9280,9558,Tag0,unknown
1499247501535,0,106,2.3291015625000003E-5,48,84,73,41539,23412,5554,3365,10101,9914,9280,9558,Tag0,unknown
1499247501536,0,113,2.48291015625E-5,48,84,73,41539,23412,5554,3365,10101,9914,9280,9558,Tag0,unknown
1499247501536,0,92,2.021484375E-5,48,84,73,41539,23412,5554,3365,10101,9914,9280,9558,Tag0,unknown
1499247501536,0,84,1.8457031250000004E-5,48,84,73,41539,23412,5554,3365,10101,9914,9280,9558,Tag0,unknown
1499247501536,0,86,1.8896484375000003E-5,48,84,73,41539,23412,5554,3365,10101,9914,9280,9558,Tag0,unknown
1499247501537,0,102,2.2412109374999998E-5,48,84,73,41539,23412,5554,3365,10101,9914,9280,9558,Tag0,unknown
1499247501537,0,-126,-2.7685546875E-5,48,84,73,41539,23412,5554,3365,10101,9914,9280,9558,Tag0,unknown
1499247501537,0,120,2.63671875E-5,48,84,73,41539,23412,5554,3365,10101,9914,9280,9558,Tag0,unknown
1499247501537,0,104,2.28515625E-5,48,84,73,41539,23412,5554,3365,10101,9914,9280,9558,Tag0,unknown
1499247501537,0,117,2.5708007812499998E-5,48,84,73,41539,23412,5554,3365,10101,9914,9280,9558,Tag0,unknown
1499247501538,0,-125,-2.74658203125E-5,48,84,73,41539,23412,5554,3365,10101,9914,9280,9558,Tag0,unknown
1499247501538,0,114,2.5048828125000003E-5,48,84,73,41539,23412,5554,3365,10101,9914,9280,9558,Tag0,unknown
1499247501538,0,90,1.9775390625E-5,48,84,73,41539,23412,5554,3365,10101,9914,9280,9558,Tag0,unknown
1499247501538,0,88,1.93359375E-5,48,84,73,41539,23412,5554,3365,10101,9914,9280,9558,Tag0,unknown
1499247501538,0,92,2.021484375E-5,48,84,73,41539,23412,5554,3365,10101,9914,9280,9558,Tag0,unknown
1499247501539,0,96,2.109375E-5,48,84,73,41539,23412,5554,3365,10101,9914,9280,9558,Tag0,unknown
1499247501539,0,96,2.109375E-5,48,84,73,41539,23412,5554,3365,10101,9914,9280,9558,Tag0,unknown
1499247501539,0,93,2.04345703125E-5,48,84,73,41539,23412,5554,3365,10101,9914,9280,9558,Tag0,unknown
1499247501539,0,74,1.6259765625E-5,48,84,73,41539,23412,5554,3365,10101,9914,9280,9558,Tag0,unknown
1499247501539,0,56,1.23046875E-5,48,84,73,41539,23412,5554,3365,10101,9914,9280,9558,Tag0,unknown
1499247501540,0,66,1.4501953125E-5,48,84,73,41539,23412,5554,3365,10101,9914,9280,9558,Tag0,unknown
1499247501540,0,87,1.91162109375E-5,48,84,73,41539,23412,5554,3365,10101,9914,9280,9558,Tag0,unknown
1499247501540,0,101,2.2192382812500002E-5,48,84,73,41539,23412,5554,3365,10101,9914,9280,9558,Tag0,unknown
1499247501541,0,96,2.109375E-5,48,84,73,41539,23412,5554,3365,10101,9914,9280,9558,Tag0,unknown
1499247501541,0,73,1.6040039062500002E-5,48,84,73,41539,23412,5554,3365,10101,9914,9280,9558,Tag0,unknown
1499247501541,0,68,1.4941406250000001E-5,48,84,73,41539,23412,5554,3365,10101,9914,9280,9558,Tag0,unknown
1499247501541,0,85,1.86767578125E-5,48,84,73,41539,23412,5554,3365,10101,9914,9280,9558,Tag0,unknown
1499247501541,0,115,2.52685546875E-5,48,84,73,41539,23412,5554,3365,10101,9914,9280,9558,Tag0,unknown
1499247501542,0,-124,-2.724609375E-5,48,84,73,41539,23412,5554,3365,10101,9914,9280,9558,Tag0,unknown
1499247501542,0,122,2.6806640625E-5,48,84,73,41539,23412,5554,3365,10101,9914,9280,9558,Tag0,unknown
1499247501542,0,89,1.95556640625E-5,48,84,73,41539,23412,5554,3365,10101,9914,9280,9558,Tag0,unknown
1499247501542,0,83,1.82373046875E-5,48,84,73,41539,23412,5554,3365,10101,9914,9280,9558,Tag0,unknown
1499247501542,0,109,2.39501953125E-5,48,84,73,41539,23412,5554,3365,10101,9914,9280,9558,Tag0,unknown
1499247501543,0,-126,-2.7685546875E-5,48,84,73,41539,23412,5554,3365,10101,9914,9280,9558,Tag0,unknown
1499247501543,0,99,2.1752929687500003E-5,48,84,73,41539,23412,5554,3365,10101,9914,9280,9558,Tag0,unknown
1499247501543,0,74,1.6259765625E-5,48,84,73,41539,23412,5554,3365,10101,9914,9280,9558,Tag0,unknown
1499247501543,0,97,2.13134765625E-5,48,84,73,41539,23412,5554,3365,10101,9914,9280,9558,Tag0,unknown
1499247501543,0,121,2.6586914062500003E-5,48,84,73,41539,23412,5554,3365,10101,9914,9280,9558,Tag0,unknown
1499247501544,0,122,2.6806640625E-5,48,84,73,41539,23412,5554,3365,10101,9914,9280,9558,Tag0,unknown
1499247501544,0,106,2.3291015625000003E-5,48,84,73,41539,23412,5554,3365,10101,9914,9280,9558,Tag0,unknown
1499247501544,0,82,1.8017578124999998E-5,48,84,73,41539,23412,5554,3365,10101,9914,9280,9558,Tag0,unknown
1499247501544,0,65,1.42822265625E-5,48,84,73,41539,23412,5554,3365,10101,9914,9280,9558,Tag0,unknown
1499247501544,0,83,1.82373046875E-5,48,84,73,41539,23412,5554,3365,10101,9914,9280,9558,Tag0,unknown
1499247501545,0,-119,-2.6147460937500004E-5,48,84,73,41539,23412,5554,3365,10101,9914,9280,9558,Tag0,unknown
1499247501545,0,-75,-1.64794921875E-5,48,84,73,41539,23412,5554,3365,10101,9914,9280,9558,Tag0,unknown
1499247501545,0,-95,-2.08740234375E-5,48,84,73,41539,23412,5554,3365,10101,9914,9280,9558,Tag0,unknown
1499247501545,0,-117,-2.5708007812499998E-5,48,84,73,41539,23412,5554,3365,10101,9914,9280,9558,Tag0,unknown
1499247501546,0,-93,-2.04345703125E-5,48,84,73,41539,23412,5554,3365,10101,9914,9280,9558,Tag0,unknown
1499247501546,0,-53,-1.1645507812500002E-5,48,84,73,41539,23412,5554,3365,10101,9914,9280,9558,Tag0,unknown
1499247501546,0,-57,-1.2524414062500001E-5,48,84,73,41539,23412,5554,3365,10101,9914,9280,9558,Tag0,unknown
1499247501546,0,-107,-2.35107421875E-5,48,84,73,41539,23412,5554,3365,10101,9914,9280,9558,Tag0,unknown
1499247501547,0,-128,-2.8125E-5,48,84,73,41539,23412,5554,3365,10101,9914,9280,9558,Tag0,unknown
1499247501547,0,-96,-2.109375E-5,48,84,73,41539,23412,5554,3365,10101,9914,9280,9558,Tag0,unknown
1499247501547,0,-47,-1.0327148437500001E-5,48,84,73,41539,23412,5554,3365,10101,9914,9280,9558,Tag0,unknown
1499247501547,0,-40,-8.7890625E-6,48,84,73,41539,23412,5554,3365,10101,9914,9280,9558,Tag0,unknown
1499247501548,0,-73,-1.6040039062500002E-5,48,84,73,41539,23412,5554,3365,10101,9914,9280,9558,Tag0,unknown
1499247501548,0,-104,-2.28515625E-5,48,84,73,41539,23412,5554,3365,10101,9914,9280,9558,Tag0,unknown
1499247501548,0,-123,-2.70263671875E-5,48,84,73,41539,23412,5554,3365,10101,9914,9280,9558,Tag0,unknown
1499247501548,0,-125,-2.74658203125E-5,48,84,73,41539,23412,5554,3365,10101,9914,9280,9558,Tag0,unknown
1499247501549,0,-109,-2.39501953125E-5,48,84,73,41539,23412,5554,3365,10101,9914,9280,9558,Tag0,unknown
1499247501549,0,-103,-2.26318359375E-5,48,84,73,41539,23412,5554,3365,10101,9914,9280,9558,Tag0,unknown
1499247501549,0,-126,-2.7685546875E-5,48,84,73,41539,23412,5554,3365,10101,9914,9280,9558,Tag0,unknown
1499247501549,0,87,1.91162109375E-5,48,84,73,41539,23412,5554,3365,10101,9914,9280,9558,Tag0,unknown
1499247501550,0,76,1.669921875E-5,48,84,73,41539,23412,5554,3365,10101,9914,9280,9558,Tag0,unknown
1499247501550,0,89,1.95556640625E-5,48,84,73,41539,23412,5554,3365,10101,9914,9280,9558,Tag0,unknown
1499247501550,0,101,2.2192382812500002E-5,48,84,73,41539,23412,5554,3365,10101,9914,9280,9558,Tag0,unknown
1499247501550,0,92,2.021484375E-5,48,84,73,41539,23412,5554,3365,10101,9914,9280,9558,Tag0,unknown
1499247501551,0,64,1.40625E-5,48,84,73,41539,23412,5554,3365,10101,9914,9280,9558,Tag0,unknown
1499247501551,0,45,9.8876953125E-6,48,84,73,41539,23412,5554,3365,10101,9914,9280,9558,Tag0,unknown
1499247501551,0,58,1.2744140625E-5,48,84,73,41539,23412,5554,3365,10101,9914,9280,9558,Tag0,unknown
1499247501551,0,82,1.8017578124999998E-5,48,84,73,41539,23412,5554,3365,10101,9914,9280,9558,Tag0,unknown
1499247501552,0,103,2.26318359375E-5,48,84,73,41539,23412,5554,3365,10101,9914,9280,9558,Tag0,unknown
1499247501552,0,112,2.4609375E-5,48,84,73,41539,23412,5554,3365,10101,9914,9280,9558,Tag0,unknown
1499247501552,0,98,2.1533203125E-5,48,84,73,41539,23412,5554,3365,10101,9914,9280,9558,Tag0,unknown
1499247501552,0,86,1.8896484375000003E-5,48,84,73,41539,23412,5554,3365,10101,9914,9280,9558,Tag0,unknown
1499247501552,0,87,1.91162109375E-5,48,84,73,41539,23412,5554,3365,10101,9914,9280,9558,Tag0,unknown
1499247501553,0,93,2.04345703125E-5,48,84,73,41539,23412,5554,3365,10101,9914,9280,9558,Tag0,unknown
1499247501553,0,100,2.197265625E-5,48,84,73,41539,23412,5554,3365,10101,9914,9280,9558,Tag0,unknown
1499247501553,0,106,2.3291015625000003E-5,48,84,73,41539,23412,5554,3365,10101,9914,9280,9558,Tag0,unknown
1499247501553,0,98,2.1533203125E-5,48,84,73,41539,23412,5554,3365,10101,9914,9280,9558,Tag0,unknown
1499247501553,0,70,1.5380859375E-5,48,84,73,41539,23412,5554,3365,10101,9914,9280,9558,Tag0,unknown
1499247501554,0,51,1.1206054687499999E-5,48,84,73,41539,23412,5554,3365,10101,9914,9280,9558,Tag0,unknown
1499247501554,0,37,8.1298828125E-6,48,84,73,41539,23412,5554,3365,10101,9914,9280,9558,Tag0,unknown
1499247501554,0,33,7.2509765625E-6,48,84,73,41539,23412,5554,3365,10101,9914,9280,9558,Tag0,unknown
1499247501554,0,44,9.66796875E-6,48,84,73,41539,23412,5554,3365,10101,9914,9280,9558,Tag0,unknown
1499247501554,0,60,1.318359375E-5,48,84,73,41539,23412,5554,3365,10101,9914,9280,9558,Tag0,unknown
1499247501555,0,88,1.93359375E-5,48,84,73,41539,23412,5554,3365,10101,9914,9280,9558,Tag0,unknown
1499247501555,0,99,2.1752929687500003E-5,48,84,73,41539,23412,5554,3365,10101,9914,9280,9558,Tag0,unknown
1499247501555,0,83,1.82373046875E-5,48,84,73,41539,23412,5554,3365,10101,9914,9280,9558,Tag0,unknown
1499247501555,0,72,1.58203125E-5,48,84,73,41539,23412,5554,3365,10101,9914,9280,9558,Tag0,unknown
1499247501556,0,72,1.58203125E-5,48,84,73,41539,23412,5554,3365,10101,9914,9280,9558,Tag0,unknown
1499247501556,0,88,1.93359375E-5,48,84,73,41539,23412,5554,3365,10101,9914,9280,9558,Tag0,unknown
1499247501556,0,100,2.197265625E-5,48,84,73,41539,23412,5554,3365,10101,9914,9280,9558,Tag0,unknown
1499247501556,0,102,2.2412109374999998E-5,48,84,73,41539,23412,5554,3365,10101,9914,9280,9558,Tag0,unknown
1499247501557,0,100,2.197265625E-5,48,84,73,41539,23412,5554,3365,10101,9914,9280,9558,Tag0,unknown
1499247501557,0,96,2.109375E-5,48,84,73,41539,23412,5554,3365,10101,9914,9280,9558,Tag0,unknown
1499247501557,0,67,1.4721679687500002E-5,48,84,73,41539,23412,5554,3365,10101,9914,9280,9558,Tag0,unknown
1499247501557,0,49,1.07666015625E-5,48,84,73,41539,23412,5554,3365,10101,9914,9280,9558,Tag0,unknown
1499247501557,0,64,1.40625E-5,48,84,73,41539,23412,5554,3365,10101,9914,9280,9558,Tag0,unknown
1499247501558,0,81,1.77978515625E-5,48,84,73,41539,23412,5554,3365,10101,9914,9280,9558,Tag0,unknown
1499247501558,0,80,1.7578125E-5,48,84,73,41539,23412,5554,3365,10101,9914,9280,9558,Tag0,unknown
1499247501558,0,66,1.4501953125E-5,48,84,73,41539,23412,5554,3365,10101,9914,9280,9558,Tag0,unknown
1499247501558,0,60,1.318359375E-5,48,84,73,41539,23412,5554,3365,10101,9914,9280,9558,Tag0,unknown
1499247501559,0,71,1.56005859375E-5,48,84,73,41539,23412,5554,3365,10101,9914,9280,9558,Tag0,unknown
1499247501559,0,74,1.6259765625E-5,48,84,73,41539,23412,5554,3365,10101,9914,9280,9558,Tag0,unknown
1499247501559,0,65,1.42822265625E-5,48,84,73,41539,23412,5554,3365,10101,9914,9280,9558,Tag0,unknown
1499247501559,0,52,1.142578125E-5,48,84,73,41539,23412,5554,3365,10101,9914,9280,9558,Tag0,unknown
1499247501559,0,42,9.228515625000002E-6,48,84,73,41539,23412,5554,3365,10101,9914,9280,9558,Tag0,unknown
1499247501560,0,52,1.142578125E-5,48,84,73,41539,23412,5554,3365,10101,9914,9280,9558,Tag0,unknown
1499247501560,0,81,1.77978515625E-5,48,84,73,41539,23412,5554,3365,10101,9914,9280,9558,Tag0,unknown
1499247501560,0,97,2.13134765625E-5,48,84,73,41539,23412,5554,3365,10101,9914,9280,9558,Tag0,unknown
1499247501560,0,82,1.8017578124999998E-5,48,84,73,41539,23412,5554,3365,10101,9914,9280,9558,Tag0,unknown
1499247501560,0,50,1.0986328125E-5,48,84,73,41539,23412,5554,3365,10101,9914,9280,9558,Tag0,unknown
1499247501561,0,39,8.5693359375E-6,48,84,73,41539,23412,5554,3365,10101,9914,9280,9558,Tag0,unknown
1499247501561,0,36,7.91015625E-6,48,84,73,41539,23412,5554,3365,10101,9914,9280,9558,Tag0,unknown
1499247501561,0,25,5.4931640625E-6,48,84,73,41539,23412,5554,3365,10101,9914,9280,9558,Tag0,unknown
1499247501561,0,34,7.4707031250000005E-6,48,84,73,41539,23412,5554,3365,10101,9914,9280,9558,Tag0,unknown
1499247501561,0,53,1.1645507812500002E-5,48,84,73,41539,23412,5554,3365,10101,9914,9280,9558,Tag0,unknown
1499247501561,0,52,1.142578125E-5,48,84,73,41539,23412,5554,3365,10101,9914,9280,9558,Tag0,unknown
1499247501562,0,37,8.1298828125E-6,48,84,73,41539,23412,5554,3365,10101,9914,9280,9558,Tag0,unknown
1499247501562,0,22,4.833984375E-6,48,84,73,41539,23412,5554,3365,10101,9914,9280,9558,Tag0,unknown
1499247501562,0,18,3.955078125E-6,48,84,73,41539,23412,5554,3365,10101,9914,9280,9558,Tag0,unknown
1499247501562,0,41,9.008789062499999E-6,48,84,73,41539,23412,5554,3365,10101,9914,9280,9558,Tag0,unknown
1499247501563,0,65,1.42822265625E-5,48,84,73,41539,23412,5554,3365,10101,9914,9280,9558,Tag0,unknown
1499247501563,0,59,1.29638671875E-5,48,84,73,41539,23412,5554,3365,10101,9914,9280,9558,Tag0,unknown
1499247501563,0,65,1.42822265625E-5,48,84,73,41539,23412,5554,3365,10101,9914,9280,9558,Tag0,unknown
1499247501563,0,68,1.4941406250000001E-5,48,84,73,41539,23412,5554,3365,10101,9914,9280,9558,Tag0,unknown
1499247501563,0,70,1.5380859375E-5,48,84,73,41539,23412,5554,3365,10101,9914,9280,9558,Tag0,unknown
1499247501563,0,60,1.318359375E-5,48,84,73,41539,23412,5554,3365,10101,9914,9280,9558,Tag0,unknown
1499247501564,0,53,1.1645507812500002E-5,48,84,73,41539,23412,5554,3365,10101,9914,9280,9558,Tag0,unknown
1499247501564,0,56,1.23046875E-5,48,84,73,41539,23412,5554,3365,10101,9914,9280,9558,Tag0,unknown
1499247501564,0,58,1.2744140625E-5,48,84,73,41539,23412,5554,3365,10101,9914,9280,9558,Tag0,unknown
1499247501564,0,60,1.318359375E-5,48,84,73,41539,23412,5554,3365,10101,9914,9280,9558,Tag0,unknown
1499247501564,0,60,1.318359375E-5,48,84,73,41539,23412,5554,3365,10101,9914,9280,9558,Tag0,unknown
1499247501565,0,52,1.142578125E-5,48,84,73,41539,23412,5554,3365,10101,9914,9280,9558,Tag0,unknown
1499247501565,0,36,7.91015625E-6,48,84,73,41539,23412,5554,3365,10101,9914,9280,9558,Tag0,unknown
1499247501565,0,27,5.9326171875000005E-6,48,84,73,41539,23412,5554,3365,10101,9914,9280,9558,Tag0,unknown
1499247501565,0,39,8.5693359375E-6,48,84,73,41539,23412,5554,3365,10101,9914,9280,9558,Tag0,unknown
1499247501566,0,32,7.03125E-6,48,84,73,41539,23412,5554,3365,10101,9914,9280,9558,Tag0,unknown
1499247501566,0,3,6.591796875E-7,48,84,73,41539,23412,5554,3365,10101,9914,9280,9558,Tag0,unknown
1499247501566,0,-261,-5.73486328125E-5,48,84,73,41539,23412,5554,3365,10101,9914,9280,9558,Tag0,unknown
1499247501566,0,18,3.955078125E-6,48,84,73,41539,23412,5554,3365,10101,9914,9280,9558,Tag0,unknown
1499247501566,0,42,9.228515625000002E-6,48,84,73,41539,23412,5554,3365,10101,9914,9280,9558,Tag0,unknown
1499247501567,0,54,1.1865234375000001E-5,48,84,73,41539,23412,5554,3365,10101,9914,9280,9558,Tag0,unknown
1499247501567,0,60,1.318359375E-5,48,84,73,41539,23412,5554,3365,10101,9914,9280,9558,Tag0,unknown
1499247501567,0,74,1.6259765625E-5,48,84,73,41539,23412,5554,3365,10101,9914,9280,9558,Tag0,unknown
1499247501567,0,81,1.77978515625E-5,48,84,73,41539,23412,5554,3365,10101,9914,9280,9558,Tag0,unknown
1499247501567,0,59,1.29638671875E-5,48,84,73,41539,23412,5554,3365,10101,9914,9280,9558,Tag0,unknown
1499247501567,0,21,4.614257812500001E-6,48,84,73,41539,23412,5554,3365,10101,9914,9280,9558,Tag0,unknown
1499247501568,0,-260,-5.712890625E-5,48,84,73,41539,23412,5554,3365,10101,9914,9280,9558,Tag0,unknown
1499247501568,0,4,8.7890625E-7,48,84,73,41539,23412,5554,3365,10101,9914,9280,9558,Tag0,unknown
1499247501568,0,26,5.712890625E-6,48,84,73,41539,23412,5554,3365,10101,9914,9280,9558,Tag0,unknown
1499247501568,0,26,5.712890625E-6,48,84,73,41539,23412,5554,3365,10101,9914,9280,9558,Tag0,unknown
1499247501568,0,9,1.9775390625E-6,48,84,73,41539,23412,5554,3365,10101,9914,9280,9558,Tag0,unknown
1499247501569,0,-265,-5.82275390625E-5,48,84,73,41539,23412,5554,3365,10101,9914,9280,9558,Tag0,unknown
1499247501569,0,-275,-6.04248046875E-5,48,84,73,41539,23412,5554,3365,10101,9914,9280,9558,Tag0,unknown
1499247501569,0,7,1.5380859375E-6,48,84,73,41539,23412,5554,3365,10101,9914,9280,9558,Tag0,unknown
1499247501569,0,43,9.448242187500001E-6,48,84,73,41539,23412,5554,3365,10101,9914,9280,9558,Tag0,unknown
1499247501569,0,52,1.142578125E-5,48,84,73,41539,23412,5554,3365,10101,9914,9280,9558,Tag0,unknown
1499247501570,0,12,2.63671875E-6,48,84,73,41539,23412,5554,3365,10101,9914,9280,9558,Tag0,unknown
1499247501570,0,-264,-5.80078125E-5,48,84,73,41539,23412,5554,3365,10101,9914,9280,9558,Tag0,unknown
1499247501570,0,5,1.0986328125E-6,48,84,73,41539,23412,5554,3365,10101,9914,9280,9558,Tag0,unknown
1499247501570,0,18,3.955078125E-6,48,84,73,41539,23412,5554,3365,10101,9914,9280,9558,Tag0,unknown
1499247501570,0,12,2.63671875E-6,48,84,73,41539,23412,5554,3365,10101,9914,9280,9558,Tag0,unknown
1499247501571,0,9,1.9775390625E-6,48,84,73,41539,23412,5554,3365,10101,9914,9280,9558,Tag0,unknown
1499247501571,0,8,1.7578125E-6,48,84,73,41539,23412,5554,3365,10101,9914,9280,9558,Tag0,unknown
1499247501571,0,-265,-5.82275390625E-5,48,84,73,41539,23412,5554,3365,10101,9914,9280,9558,Tag0,unknown
1499247501571,0,-293,-6.43798828125E-5,48,84,73,41539,23412,5554,3365,10101,9914,9280,9558,Tag0,unknown
1499247501571,0,-294,-6.4599609375E-5,48,84,73,41539,23412,5554,3365,10101,9914,9280,9558,Tag0,unknown
1499247501572,0,-263,-5.7788085937500005E-5,48,84,73,41539,23412,5554,3365,10101,9914,9280,9558,Tag0,unknown
1499247501572,0,22,4.833984375E-6,48,84,73,41539,23412,5554,3365,10101,9914,9280,9558,Tag0,unknown
1499247501572,0,19,4.1748046875E-6,48,84,73,41539,23412,5554,3365,10101,9914,9280,9558,Tag0,unknown
1499247501572,0,17,3.7353515625000003E-6,48,84,73,41539,23412,5554,3365,10101,9914,9280,9558,Tag0,unknown
1499247501572,0,38,8.349609375E-6,48,84,73,41539,23412,5554,3365,10101,9914,9280,9558,Tag0,unknown
1499247501573,0,55,1.20849609375E-5,48,84,73,41539,23412,5554,3365,10101,9914,9280,9558,Tag0,unknown
1499247501573,0,64,1.40625E-5,48,84,73,41539,23412,5554,3365,10101,9914,9280,9558,Tag0,unknown
1499247501573,0,100,2.197265625E-5,48,84,73,41539,23412,5554,3365,10101,9914,9280,9558,Tag0,unknown
1499247501573,0,-121,-2.6586914062500003E-5,48,84,73,41539,23412,5554,3365,10101,9914,9280,9558,Tag0,unknown
1499247501573,0,100,2.197265625E-5,48,84,73,41539,23412,5554,3365,10101,9914,9280,9558,Tag0,unknown
1499247501574,0,39,8.5693359375E-6,48,84,73,41539,23412,5554,3365,10101,9914,9280,9558,Tag0,unknown
1499247501574,0,2,4.39453125E-7,48,84,73,41539,23412,5554,3365,10101,9914,9280,9558,Tag0,unknown
1499247501574,0,-264,-5.80078125E-5,48,84,73,41539,23412,5554,3365,10101,9914,9280,9558,Tag0,unknown
1499247501575,0,1,2.197265625E-7,48,84,73,41539,23412,5554,3365,10101,9914,9280,9558,Tag0,unknown
1499247501575,0,19,4.1748046875E-6,48,84,73,41539,23412,5554,3365,10101,9914,9280,9558,Tag0,unknown
1499247501575,0,28,6.15234375E-6,48,84,73,41539,23412,5554,3365,10101,9914,9280,9558,Tag0,unknown
1499247501576,0,23,5.0537109375E-6,48,84,73,41539,23412,5554,3365,10101,9914,9280,9558,Tag0,unknown
1499247501576,0,17,3.7353515625000003E-6,48,84,73,41539,23412,5554,3365,10101,9914,9280,9558,Tag0,unknown
1499247501576,0,11,2.4169921875E-6,48,84,73,41539,23412,5554,3365,10101,9914,9280,9558,Tag0,unknown
1499247501576,0,-270,-5.9326171875E-5,48,84,73,41539,23412,5554,3365,10101,9914,9280,9558,Tag0,unknown
1499247501577,0,-305,-6.70166015625E-5,48,84,73,41539,23412,5554,3365,10101,9914,9280,9558,Tag0,unknown
1499247501577,0,-293,-6.43798828125E-5,48,84,73,41539,23412,5554,3365,10101,9914,9280,9558,Tag0,unknown
1499247501577,0,8,1.7578125E-6,48,84,73,41539,23412,5554,3365,10101,9914,9280,9558,Tag0,unknown
1499247501577,0,42,9.228515625000002E-6,48,84,73,41539,23412,5554,3365,10101,9914,9280,9558,Tag0,unknown
1499247501577,0,28,6.15234375E-6,48,84,73,41539,23412,5554,3365,10101,9914,9280,9558,Tag0,unknown
1499247501578,0,-258,-5.6689453125000004E-5,48,84,73,41539,23412,5554,3365,10101,9914,9280,9558,Tag0,unknown
1499247501578,0,1,2.197265625E-7,48,84,73,41539,23412,5554,3365,10101,9914,9280,9558,Tag0,unknown
1499247501578,0,22,4.833984375E-6,48,84,73,41539,23412,5554,3365,10101,9914,9280,9558,Tag0,unknown
1499247501578,0,38,8.349609375E-6,48,84,73,41539,23412,5554,3365,10101,9914,9280,9558,Tag0,unknown
1499247501579,0,56,1.23046875E-5,48,84,73,41539,23412,5554,3365,10101,9914,9280,9558,Tag0,unknown
1499247501579,0,64,1.40625E-5,48,84,73,41539,23412,5554,3365,10101,9914,9280,9558,Tag0,unknown
1499247501579,0,57,1.2524414062500001E-5,48,84,73,41539,23412,5554,3365,10101,9914,9280,9558,Tag0,unknown
1499247501579,0,43,9.448242187500001E-6,48,84,73,41539,23412,5554,3365,10101,9914,9280,9558,Tag0,unknown
1499247501579,0,37,8.1298828125E-6,48,84,73,41539,23412,5554,3365,10101,9914,9280,9558,Tag0,unknown
1499247501580,0,26,5.712890625E-6,48,84,73,41539,23412,5554,3365,10101,9914,9280,9558,Tag0,unknown
1499247501580,0,10,2.197265625E-6,48,84,73,41539,23412,5554,3365,10101,9914,9280,9558,Tag0,unknown
1499247501580,0,12,2.63671875E-6,48,84,73,41539,23412,5554,3365,10101,9914,9280,9558,Tag0,unknown
1499247501580,0,25,5.4931640625E-6,48,84,73,41539,23412,5554,3365,10101,9914,9280,9558,Tag0,unknown
1499247501580,0,35,7.6904296875E-6,48,84,73,41539,23412,5554,3365,10101,9914,9280,9558,Tag0,unknown
1499247501580,0,35,7.6904296875E-6,48,84,73,41539,23412,5554,3365,10101,9914,9280,9558,Tag0,unknown
1499247501581,0,20,4.39453125E-6,48,84,73,41539,23412,5554,3365,10101,9914,9280,9558,Tag0,unknown
1499247501581,0,12,2.63671875E-6,48,84,73,41539,23412,5554,3365,10101,9914,9280,9558,Tag0,unknown
1499247501581,0,33,7.2509765625E-6,48,84,73,41539,23412,5554,3365,10101,9914,9280,9558,Tag0,unknown
1499247501581,0,56,1.23046875E-5,48,84,73,41539,23412,5554,3365,10101,9914,9280,9558,Tag0,unknown
1499247501581,0,40,8.7890625E-6,48,84,73,41539,23412,5554,3365,10101,9914,9280,9558,Tag0,unknown
1499247501582,0,3,6.591796875E-7,48,84,73,41539,23412,5554,3365,10101,9914,9280,9558,Tag0,unknown
1499247501582,0,-262,-5.7568359375E-5,48,84,73,41539,23412,5554,3365,10101,9914,9280,9558,Tag0,unknown
1499247501582,0,20,4.39453125E-6,48,84,73,41539,23412,5554,3365,10101,9914,9280,9558,Tag0,unknown
1499247501582,0,48,1.0546875E-5,48,84,73,41539,23412,5554,3365,10101,9914,9280,9558,Tag0,unknown
1499247501582,0,66,1.4501953125E-5,48,84,73,41539,23412,5554,3365,10101,9914,9280,9558,Tag0,unknown
1499247501585,0,73,1.6040039062500002E-5,48,84,73,41539,23412,5554,3365,10101,9914,9280,9558,Tag0,unknown
1499247501585,0,84,1.8457031250000004E-5,48,84,73,41539,23412,5554,3365,10101,9914,9280,9558,Tag0,unknown
1499247501586,0,103,2.26318359375E-5,48,84,73,41539,23412,5554,3365,10101,9914,9280,9558,Tag0,unknown
1499247501586,0,120,2.63671875E-5,48,84,73,41539,23412,5554,3365,10101,9914,9280,9558,Tag0,unknown
1499247501586,0,121,2.6586914062500003E-5,48,84,73,41539,23412,5554,3365,10101,9914,9280,9558,Tag0,unknown
1499247501586,0,106,2.3291015625000003E-5,48,84,73,41539,23412,5554,3365,10101,9914,9280,9558,Tag0,unknown
1499247501586,0,103,2.26318359375E-5,48,84,73,41539,23412,5554,3365,10101,9914,9280,9558,Tag0,unknown
1499247501586,0,108,2.3730468750000002E-5,48,84,73,41539,23412,5554,3365,10101,9914,9280,9558,Tag0,unknown
1499247501587,0,113,2.48291015625E-5,48,84,73,41539,23412,5554,3365,10101,9914,9280,9558,Tag0,unknown
1499247501587,0,104,2.28515625E-5,48,84,73,41539,23412,5554,3365,10101,9914,9280,9558,Tag0,unknown
1499247501587,0,84,1.8457031250000004E-5,48,84,73,41539,23412,5554,3365,10101,9914,9280,9558,Tag0,unknown
1499247501587,0,66,1.4501953125E-5,48,84,73,41539,23412,5554,3365,10101,9914,9280,9558,Tag0,unknown
1499247501587,0,72,1.58203125E-5,48,84,73,41539,23412,5554,3365,10101,9914,9280,9558,Tag0,unknown
1499247501587,0,74,1.6259765625E-5,48,84,73,41539,23412,5554,3365,10101,9914,9280,9558,Tag0,unknown
1499247501588,0,57,1.2524414062500001E-5,48,84,73,41539,23412,5554,3365,10101,9914,9280,9558,Tag0,unknown
1499247501588,0,27,5.9326171875000005E-6,48,84,73,41539,23412,5554,3365,10101,9914,9280,9558,Tag0,unknown
1499247501588,0,-262,-5.7568359375E-5,48,84,73,41539,23412,5554,3365,10101,9914,9280,9558,Tag0,unknown
1499247501588,0,-275,-6.04248046875E-5,48,84,73,41539,23412,5554,3365,10101,9914,9280,9558,Tag0,unknown
1499247501588,0,4,8.7890625E-7,48,84,73,41539,23412,5554,3365,10101,9914,9280,9558,Tag0,unknown
1499247501589,0,28,6.15234375E-6,48,84,73,41539,23412,5554,3365,10101,9914,9280,9558,Tag0,unknown
1499247501589,0,28,6.15234375E-6,48,84,73,41539,23412,5554,3365,10101,9914,9280,9558,Tag0,unknown
1499247501589,0,21,4.614257812500001E-6,48,84,73,41539,23412,5554,3365,10101,9914,9280,9558,Tag0,unknown
1499247501589,0,9,1.9775390625E-6,48,84,73,41539,23412,5554,3365,10101,9914,9280,9558,Tag0,unknown
1499247501589,0,18,3.955078125E-6,48,84,73,41539,23412,5554,3365,10101,9914,9280,9558,Tag0,unknown
1499247501589,0,40,8.7890625E-6,48,84,73,41539,23412,5554,3365,10101,9914,9280,9558,Tag0,unknown
1499247501590,0,66,1.4501953125E-5,48,84,73,41539,23412,5554,3365,10101,9914,9280,9558,Tag0,unknown
1499247501590,0,103,2.26318359375E-5,48,84,73,41539,23412,5554,3365,10101,9914,9280,9558,Tag0,unknown
1499247501590,0,120,2.63671875E-5,48,84,73,41539,23412,5554,3365,10101,9914,9280,9558,Tag0,unknown
1499247501590,0,114,2.5048828125000003E-5,48,84,73,41539,23412,5554,3365,10101,9914,9280,9558,Tag0,unknown
1499247501590,0,104,2.28515625E-5,48,84,73,41539,23412,5554,3365,10101,9914,9280,9558,Tag0,unknown
1499247501590,0,114,2.5048828125000003E-5,48,84,73,41539,23412,5554,3365,10101,9914,9280,9558,Tag0,unknown
1499247501591,0,104,2.28515625E-5,48,84,73,41539,23412,5554,3365,10101,9914,9280,9558,Tag0,unknown
1499247501591,0,76,1.669921875E-5,48,84,73,41539,23412,5554,3365,10101,9914,9280,9558,Tag0,unknown
1499247501591,0,58,1.2744140625E-5,48,84,73,41539,23412,5554,3365,10101,9914,9280,9558,Tag0,unknown
1499247501591,0,44,9.66796875E-6,48,84,73,41539,23412,5554,3365,10101,9914,9280,9558,Tag0,unknown
1499247501591,0,64,1.40625E-5,48,84,73,41539,23412,5554,3365,10101,9914,9280,9558,Tag0,unknown
1499247501591,0,89,1.95556640625E-5,48,84,73,41539,23412,5554,3365,10101,9914,9280,9558,Tag0,unknown
1499247501592,0,66,1.4501953125E-5,48,84,73,41539,23412,5554,3365,10101,9914,9280,9558,Tag0,unknown
1499247501592,0,24,5.2734375E-6,48,84,73,41539,23412,5554,3365,10101,9914,9280,9558,Tag0,unknown
1499247501592,0,22,4.833984375E-6,48,84,73,41539,23412,5554,3365,10101,9914,9280,9558,Tag0,unknown
1499247501592,0,53,1.1645507812500002E-5,48,84,73,41539,23412,5554,3365,10101,9914,9280,9558,Tag0,unknown
1499247501592,0,82,1.8017578124999998E-5,48,84,73,41539,23412,5554,3365,10101,9914,9280,9558,Tag0,unknown
1499247501604,0,103,2.26318359375E-5,66,88,73,98072,11660,10342,16746480,1743,19873,8791,3832,Tag0,unknown
1499247501604,0,103,2.26318359375E-5,66,88,73,98072,11660,10342,16746480,1743,19873,8791,3832,Tag0,unknown
1499247501605,0,80,1.7578125E-5,66,88,73,98072,11660,10342,16746480,1743,19873,8791,3832,Tag0,unknown
1499247501605,0,70,1.5380859375E-5,66,88,73,98072,11660,10342,16746480,1743,19873,8791,3832,Tag0,unknown
1499247501605,0,93,2.04345703125E-5,66,88,73,98072,11660,10342,16746480,1743,19873,8791,3832,Tag0,unknown
1499247501605,0,93,2.04345703125E-5,66,88,73,98072,11660,10342,16746480,1743,19873,8791,3832,Tag0,unknown
1499247501606,0,64,1.40625E-5,66,88,73,98072,11660,10342,16746480,1743,19873,8791,3832,Tag0,unknown
1499247501606,0,32,7.03125E-6,66,88,73,98072,11660,10342,16746480,1743,19873,8791,3832,Tag0,unknown
1499247501609,0,34,7.4707031250000005E-6,66,88,73,98072,11660,10342,16746480,1743,19873,8791,3832,Tag0,unknown
1499247501613,0,73,1.6040039062500002E-5,66,88,73,98072,11660,10342,16746480,1743,19873,8791,3832,Tag0,unknown
1499247501613,0,97,2.13134765625E-5,66,88,73,98072,11660,10342,16746480,1743,19873,8791,3832,Tag0,unknown
1499247501613,0,76,1.669921875E-5,66,88,73,98072,11660,10342,16746480,1743,19873,8791,3832,Tag0,unknown
1499247501613,0,50,1.0986328125E-5,66,88,73,98072,11660,10342,16746480,1743,19873,8791,3832,Tag0,unknown
1499247501613,0,43,9.448242187500001E-6,66,88,73,98072,11660,10342,16746480,1743,19873,8791,3832,Tag0,unknown
1499247501613,0,52,1.142578125E-5,66,88,73,98072,11660,10342,16746480,1743,19873,8791,3832,Tag0,unknown
1499247501614,0,55,1.20849609375E-5,66,88,73,98072,11660,10342,16746480,1743,19873,8791,3832,Tag0,unknown
1499247501614,0,66,1.4501953125E-5,66,88,73,98072,11660,10342,16746480,1743,19873,8791,3832,Tag0,unknown
1499247501614,0,91,1.99951171875E-5,66,88,73,98072,11660,10342,16746480,1743,19873,8791,3832,Tag0,unknown
1499247501614,0,-111,-2.43896484375E-5,66,88,73,98072,11660,10342,16746480,1743,19873,8791,3832,Tag0,unknown
1499247501614,0,-116,-2.548828125E-5,66,88,73,98072,11660,10342,16746480,1743,19873,8791,3832,Tag0,unknown
1499247501614,0,88,1.93359375E-5,66,88,73,98072,11660,10342,16746480,1743,19873,8791,3832,Tag0,unknown
1499247501621,0,57,1.2524414062500001E-5,66,88,73,98072,11660,10342,16746480,1743,19873,8791,3832,Tag0,unknown
1499247501621,0,52,1.142578125E-5,66,88,73,98072,11660,10342,16746480,1743,19873,8791,3832,Tag0,unknown
1499247501622,0,49,1.07666015625E-5,66,88,73,98072,11660,10342,16746480,1743,19873,8791,3832,Tag0,unknown
1499247501622,0,56,1.23046875E-5,66,88,73,98072,11660,10342,16746480,1743,19873,8791,3832,Tag0,unknown
1499247501622,0,64,1.40625E-5,66,88,73,98072,11660,10342,16746480,1743,19873,8791,3832,Tag0,unknown
1499247501622,0,81,1.77978515625E-5,66,88,73,98072,11660,10342,16746480,1743,19873,8791,3832,Tag0,unknown
1499247501622,0,107,2.35107421875E-5,66,88,73,98072,11660,10342,16746480,1743,19873,8791,3832,Tag0,unknown
1499247501622,0,124,2.724609375E-5,66,88,73,98072,11660,10342,16746480,1743,19873,8791,3832,Tag0,unknown
1499247501622,0,109,2.39501953125E-5,66,88,73,98072,11660,10342,16746480,1743,19873,8791,3832,Tag0,unknown
1499247501623,0,70,1.5380859375E-5,66,88,73,98072,11660,10342,16746480,1743,19873,8791,3832,Tag0,unknown
1499247501623,0,53,1.1645507812500002E-5,66,88,73,98072,11660,10342,16746480,1743,19873,8791,3832,Tag0,unknown
1499247501623,0,74,1.6259765625E-5,66,88,73,98072,11660,10342,16746480,1743,19873,8791,3832,Tag0,unknown
1499247501623,0,97,2.13134765625E-5,66,88,73,98072,11660,10342,16746480,1743,19873,8791,3832,Tag0,unknown
1499247501623,0,99,2.1752929687500003E-5,66,88,73,98072,11660,10342,16746480,1743,19873,8791,3832,Tag0,unknown
1499247501623,0,113,2.48291015625E-5,66,88,73,98072,11660,10342,16746480,1743,19873,8791,3832,Tag0,unknown
1499247501623,0,-127,-2.79052734375E-5,66,88,73,98072,11660,10342,16746480,1743,19873,8791,3832,Tag0,unknown
1499247501623,0,119,2.6147460937500004E-5,66,88,73,98072,11660,10342,16746480,1743,19873,8791,3832,Tag0,unknown
1499247501624,0,96,2.109375E-5,66,88,73,98072,11660,10342,16746480,1743,19873,8791,3832,Tag0,unknown
1499247501624,0,67,1.4721679687500002E-5,66,88,73,98072,11660,10342,16746480,1743,19873,8791,3832,Tag0,unknown
1499247501624,0,66,1.4501953125E-5,66,88,73,98072,11660,10342,16746480,1743,19873,8791,3832,Tag0,unknown
1499247501624,0,83,1.82373046875E-5,66,88,73,98072,11660,10342,16746480,1743,19873,8791,3832,Tag0,unknown
1499247501624,0,82,1.8017578124999998E-5,66,88,73,98072,11660,10342,16746480,1743,19873,8791,3832,Tag0,unknown
1499247501624,0,70,1.5380859375E-5,66,88,73,98072,11660,10342,16746480,1743,19873,8791,3832,Tag0,unknown
1499247501624,0,89,1.95556640625E-5,66,88,73,98072,11660,10342,16746480,1743,19873,8791,3832,Tag0,unknown
1499247501625,0,98,2.1533203125E-5,66,88,73,98072,11660,10342,16746480,1743,19873,8791,3832,Tag0,unknown
1499247501625,0,74,1.6259765625E-5,66,88,73,98072,11660,10342,16746480,1743,19873,8791,3832,Tag0,unknown
1499247501625,0,45,9.8876953125E-6,66,88,73,98072,11660,10342,16746480,1743,19873,8791,3832,Tag0,unknown
1499247501625,0,49,1.07666015625E-5,66,88,73,98072,11660,10342,16746480,1743,19873,8791,3832,Tag0,unknown
1499247501625,0,82,1.8017578124999998E-5,66,88,73,98072,11660,10342,16746480,1743,19873,8791,3832,Tag0,unknown
1499247501625,0,106,2.3291015625000003E-5,66,88,73,98072,11660,10342,16746480,1743,19873,8791,3832,Tag0,unknown
1499247501626,0,112,2.4609375E-5,66,88,73,98072,11660,10342,16746480,1743,19873,8791,3832,Tag0,unknown
1499247501626,0,101,2.2192382812500002E-5,66,88,73,98072,11660,10342,16746480,1743,19873,8791,3832,Tag0,unknown
1499247501626,0,97,2.13134765625E-5,66,88,73,98072,11660,10342,16746480,1743,19873,8791,3832,Tag0,unknown
1499247501626,0,101,2.2192382812500002E-5,66,88,73,98072,11660,10342,16746480,1743,19873,8791,3832,Tag0,unknown
1499247501626,0,98,2.1533203125E-5,66,88,73,98072,11660,10342,16746480,1743,19873,8791,3832,Tag0,unknown
1499247501626,0,70,1.5380859375E-5,66,88,73,98072,11660,10342,16746480,1743,19873,8791,3832,Tag0,unknown
1499247501626,0,50,1.0986328125E-5,66,88,73,98072,11660,10342,16746480,1743,19873,8791,3832,Tag0,unknown
1499247501627,0,33,7.2509765625E-6,66,88,73,98072,11660,10342,16746480,1743,19873,8791,3832,Tag0,unknown
1499247501627,0,17,3.7353515625000003E-6,66,88,73,98072,11660,10342,16746480,1743,19873,8791,3832,Tag0,unknown
1499247501627,0,13,2.8564453125E-6,66,88,73,98072,11660,10342,16746480,1743,19873,8791,3832,Tag0,unknown
1499247501627,0,24,5.2734375E-6,66,88,73,98072,11660,10342,16746480,1743,19873,8791,3832,Tag0,unknown
1499247501627,0,42,9.228515625000002E-6,66,88,73,98072,11660,10342,16746480,1743,19873,8791,3832,Tag0,unknown
1499247501627,0,53,1.1645507812500002E-5,66,88,73,98072,11660,10342,16746480,1743,19873,8791,3832,Tag0,unknown
1499247501627,0,65,1.42822265625E-5,66,88,73,98072,11660,10342,16746480,1743,19873,8791,3832,Tag0,unknown
1499247501627,0,68,1.4941406250000001E-5,66,88,73,98072,11660,10342,16746480,1743,19873,8791,3832,Tag0,unknown
1499247501628,0,70,1.5380859375E-5,66,88,73,98072,11660,10342,16746480,1743,19873,8791,3832,Tag0,unknown
1499247501628,0,87,1.91162109375E-5,66,88,73,98072,11660,10342,16746480,1743,19873,8791,3832,Tag0,unknown
1499247501628,0,119,2.6147460937500004E-5,66,88,73,98072,11660,10342,16746480,1743,19873,8791,3832,Tag0,unknown
1499247501628,0,-118,-2.5927734375E-5,66,88,73,98072,11660,10342,16746480,1743,19873,8791,3832,Tag0,unknown
1499247501628,0,-117,-2.5708007812499998E-5,66,88,73,98072,11660,10342,16746480,1743,19873,8791,3832,Tag0,unknown
1499247501628,0,-119,-2.6147460937500004E-5,66,88,73,98072,11660,10342,16746480,1743,19873,8791,3832,Tag0,unknown
1499247501628,0,-119,-2.6147460937500004E-5,66,88,73,98072,11660,10342,16746480,1743,19873,8791,3832,Tag0,unknown
1499247501629,0,107,2.35107421875E-5,66,88,73,98072,11660,10342,16746480,1743,19873,8791,3832,Tag0,unknown
1499247501629,0,73,1.6040039062500002E-5,66,88,73,98072,11660,10342,16746480,1743,19873,8791,3832,Tag0,unknown
1499247501629,0,60,1.318359375E-5,66,88,73,98072,11660,10342,16746480,1743,19873,8791,3832,Tag0,unknown
1499247501629,0,69,1.51611328125E-5,66,88,73,98072,11660,10342,16746480,1743,19873,8791,3832,Tag0,unknown
1499247501629,0,98,2.1533203125E-5,66,88,73,98072,11660,10342,16746480,1743,19873,8791,3832,Tag0,unknown
1499247501629,0,-128,-2.8125E-5,66,88,73,98072,11660,10342,16746480,1743,19873,8791,3832,Tag0,unknown
1499247501675,0,-120,-2.63671875E-5,66,88,73,98072,11660,10342,16746480,1743,19873,8791,3832,Tag0,unknown
1499247501676,0,118,2.5927734375E-5,66,88,73,98072,11660,10342,16746480,1743,19873,8791,3832,Tag0,unknown
1499247501677,0,89,1.95556640625E-5,66,88,73,98072,11660,10342,16746480,1743,19873,8791,3832,Tag0,unknown
1499247501689,0,82,1.8017578124999998E-5,66,88,73,98072,11660,10342,16746480,1743,19873,8791,3832,Tag0,unknown
1499247501690,0,101,2.2192382812500002E-5,66,88,73,98072,11660,10342,16746480,1743,19873,8791,3832,Tag0,unknown
1499247501690,0,115,2.52685546875E-5,66,88,73,98072,11660,10342,16746480,1743,19873,8791,3832,Tag0,unknown
1499247501691,0,108,2.3730468750000002E-5,66,88,73,98072,11660,10342,16746480,1743,19873,8791,3832,Tag0,unknown
1499247501691,0,88,1.93359375E-5,66,88,73,98072,11660,10342,16746480,1743,19873,8791,3832,Tag0,unknown
1499247501692,0,76,1.669921875E-5,66,88,73,98072,11660,10342,16746480,1743,19873,8791,3832,Tag0,unknown
1499247501692,0,70,1.5380859375E-5,66,88,73,98072,11660,10342,16746480,1743,19873,8791,3832,Tag0,unknown
1499247501693,0,57,1.2524414062500001E-5,66,88,73,98072,11660,10342,16746480,1743,19873,8791,3832,Tag0,unknown
1499247501693,0,52,1.142578125E-5,66,88,73,98072,11660,10342,16746480,1743,19873,8791,3832,Tag0,unknown
1499247501694,0,58,1.2744140625E-5,66,88,73,98072,11660,10342,16746480,1743,19873,8791,3832,Tag0,unknown
1499247501694,0,65,1.42822265625E-5,66,88,73,98072,11660,10342,16746480,1743,19873,8791,3832,Tag0,unknown
1499247501695,0,66,1.4501953125E-5,66,88,73,98072,11660,10342,16746480,1743,19873,8791,3832,Tag0,unknown
1499247501696,0,61,1.34033203125E-5,66,88,73,98072,11660,10342,16746480,1743,19873,8791,3832,Tag0,unknown
1499247502058,0,64,1.40625E-5,66,88,73,98072,11660,10342,16746480,1743,19873,8791,3832,Tag0,unknown
1499247502059,0,58,1.2744140625E-5,66,88,73,98072,11660,10342,16746480,1743,19873,8791,3832,Tag0,unknown
1499247502060,0,56,1.23046875E-5,66,88,73,98072,11660,10342,16746480,1743,19873,8791,3832,Tag0,unknown
1499247502060,0,64,1.40625E-5,66,88,73,98072,11660,10342,16746480,1743,19873,8791,3832,Tag0,unknown
1499247502060,0,68,1.4941406250000001E-5,66,88,73,98072,11660,10342,16746480,1743,19873,8791,3832,Tag0,unknown
1499247502060,0,65,1.42822265625E-5,66,88,73,98072,11660,10342,16746480,1743,19873,8791,3832,Tag0,unknown
1499247502061,0,57,1.2524414062500001E-5,66,88,73,98072,11660,10342,16746480,1743,19873,8791,3832,Tag0,unknown
1499247502061,0,64,1.40625E-5,66,88,73,98072,11660,10342,16746480,1743,19873,8791,3832,Tag0,unknown
1499247502061,0,69,1.51611328125E-5,66,88,73,98072,11660,10342,16746480,1743,19873,8791,3832,Tag0,unknown
1499247502062,0,69,1.51611328125E-5,66,88,73,98072,11660,10342,16746480,1743,19873,8791,3832,Tag0,unknown
1499247502062,0,83,1.82373046875E-5,66,88,73,98072,11660,10342,16746480,1743,19873,8791,3832,Tag0,unknown
1499247502062,0,89,1.95556640625E-5,66,88,73,98072,11660,10342,16746480,1743,19873,8791,3832,Tag0,unknown
1499247502063,0,91,1.99951171875E-5,66,88,73,98072,11660,10342,16746480,1743,19873,8791,3832,Tag0,unknown
1499247502063,0,96,2.109375E-5,66,88,73,98072,11660,10342,16746480,1743,19873,8791,3832,Tag0,unknown
1499247502064,0,98,2.1533203125E-5,66,88,73,98072,11660,10342,16746480,1743,19873,8791,3832,Tag0,unknown
1499247502064,0,96,2.109375E-5,66,88,73,98072,11660,10342,16746480,1743,19873,8791,3832,Tag0,unknown
1499247502064,0,88,1.93359375E-5,66,88,73,98072,11660,10342,16746480,1743,19873,8791,3832,Tag0,unknown
1499247502064,0,74,1.6259765625E-5,66,88,73,98072,11660,10342,16746480,1743,19873,8791,3832,Tag0,unknown
1499247502065,0,85,1.86767578125E-5,66,88,73,98072,11660,10342,16746480,1743,19873,8791,3832,Tag0,unknown
1499247502065,0,88,1.93359375E-5,66,88,73,98072,11660,10342,16746480,1743,19873,8791,3832,Tag0,unknown
1499247502066,0,54,1.1865234375000001E-5,66,88,73,98072,11660,10342,16746480,1743,19873,8791,3832,Tag0,unknown
1499247502066,0,21,4.614257812500001E-6,66,88,73,98072,11660,10342,16746480,1743,19873,8791,3832,Tag0,unknown
1499247502066,0,21,4.614257812500001E-6,66,88,73,98072,11660,10342,16746480,1743,19873,8791,3832,Tag0,unknown
1499247502067,0,43,9.448242187500001E-6,66,88,73,98072,11660,10342,16746480,1743,19873,8791,3832,Tag0,unknown
1499247502067,0,81,1.77978515625E-5,66,88,73,98072,11660,10342,16746480,1743,19873,8791,3832,Tag0,unknown
1499247502067,0,118,2.5927734375E-5,66,88,73,98072,11660,10342,16746480,1743,19873,8791,3832,Tag0,unknown
1499247502067,0,-124,-2.724609375E-5,66,88,73,98072,11660,10342,16746480,1743,19873,8791,3832,Tag0,unknown
1499247502068,0,118,2.5927734375E-5,66,88,73,98072,11660,10342,16746480,1743,19873,8791,3832,Tag0,unknown
1499247502068,0,98,2.1533203125E-5,66,88,73,98072,11660,10342,16746480,1743,19873,8791,3832,Tag0,unknown
1499247502068,0,68,1.4941406250000001E-5,66,88,73,98072,11660,10342,16746480,1743,19873,8791,3832,Tag0,unknown
1499247502069,0,56,1.23046875E-5,66,88,73,98072,11660,10342,16746480,1743,19873,8791,3832,Tag0,unknown
1499247502069,0,72,1.58203125E-5,66,88,73,98072,11660,10342,16746480,1743,19873,8791,3832,Tag0,unknown
1499247502069,0,82,1.8017578124999998E-5,66,88,73,98072,11660,10342,16746480,1743,19873,8791,3832,Tag0,unknown
1499247502069,0,80,1.7578125E-5,66,88,73,98072,11660,10342,16746480,1743,19873,8791,3832,Tag0,unknown
1499247502070,0,68,1.4941406250000001E-5,66,88,73,98072,11660,10342,16746480,1743,19873,8791,3832,Tag0,unknown
1499247502070,0,52,1.142578125E-5,66,88,73,98072,11660,10342,16746480,1743,19873,8791,3832,Tag0,unknown
1499247502070,0,42,9.228515625000002E-6,66,88,73,98072,11660,10342,16746480,1743,19873,8791,3832,Tag0,unknown
1499247502071,0,39,8.5693359375E-6,66,88,73,98072,11660,10342,16746480,1743,19873,8791,3832,Tag0,unknown
1499247502071,0,42,9.228515625000002E-6,66,88,73,98072,11660,10342,16746480,1743,19873,8791,3832,Tag0,unknown
1499247502071,0,49,1.07666015625E-5,66,88,73,98072,11660,10342,16746480,1743,19873,8791,3832,Tag0,unknown
1499247502072,0,43,9.448242187500001E-6,66,88,73,98072,11660,10342,16746480,1743,19873,8791,3832,Tag0,unknown
1499247502072,0,35,7.6904296875E-6,66,88,73,98072,11660,10342,16746480,1743,19873,8791,3832,Tag0,unknown
1499247502072,0,28,6.15234375E-6,66,88,73,98072,11660,10342,16746480,1743,19873,8791,3832,Tag0,unknown
1499247502072,0,25,5.4931640625E-6,66,88,73,98072,11660,10342,16746480,1743,19873,8791,3832,Tag0,unknown
1499247502073,0,16,3.515625E-6,66,88,73,98072,11660,10342,16746480,1743,19873,8791,3832,Tag0,unknown
1499247502073,0,-262,-5.7568359375E-5,66,88,73,98072,11660,10342,16746480,1743,19873,8791,3832,Tag0,unknown
1499247502073,0,-273,-5.998535156250001E-5,66,88,73,98072,11660,10342,16746480,1743,19873,8791,3832,Tag0,unknown
1499247502074,0,-258,-5.6689453125000004E-5,66,88,73,98072,11660,10342,16746480,1743,19873,8791,3832,Tag0,unknown
1499247502074,0,1,2.197265625E-7,66,88,73,98072,11660,10342,16746480,1743,19873,8791,3832,Tag0,unknown
1499247502074,0,-262,-5.7568359375E-5,66,88,73,98072,11660,10342,16746480,1743,19873,8791,3832,Tag0,unknown
1499247502075,0,-268,-5.8886718750000006E-5,66,88,73,98072,11660,10342,16746480,1743,19873,8791,3832,Tag0,unknown
1499247502075,0,-261,-5.73486328125E-5,66,88,73,98072,11660,10342,16746480,1743,19873,8791,3832,Tag0,unknown
1499247502075,0,26,5.712890625E-6,66,88,73,98072,11660,10342,16746480,1743,19873,8791,3832,Tag0,unknown
1499247502076,0,38,8.349609375E-6,66,88,73,98072,11660,10342,16746480,1743,19873,8791,3832,Tag0,unknown
1499247502076,0,11,2.4169921875E-6,66,88,73,98072,11660,10342,16746480,1743,19873,8791,3832,Tag0,unknown
1499247502076,0,-263,-5.7788085937500005E-5,66,88,73,98072,11660,10342,16746480,1743,19873,8791,3832,Tag0,unknown
1499247502077,0,-277,-6.0864257812500005E-5,66,88,73,98072,11660,10342,16746480,1743,19873,8791,3832,Tag0,unknown
1499247502077,0,-281,-6.17431640625E-5,66,88,73,98072,11660,10342,16746480,1743,19873,8791,3832,Tag0,unknown
1499247502077,0,-261,-5.73486328125E-5,66,88,73,98072,11660,10342,16746480,1743,19873,8791,3832,Tag0,unknown
1499247502078,0,29,6.3720703125E-6,66,88,73,98072,11660,10342,16746480,1743,19873,8791,3832,Tag0,unknown
1499247502078,0,41,9.008789062499999E-6,66,88,73,98072,11660,10342,16746480,1743,19873,8791,3832,Tag0,unknown
1499247502079,0,23,5.0537109375E-6,66,88,73,98072,11660,10342,16746480,1743,19873,8791,3832,Tag0,unknown
1499247502080,0,7,1.5380859375E-6,66,88,73,98072,11660,10342,16746480,1743,19873,8791,3832,Tag0,unknown
1499247502080,0,16,3.515625E-6,66,88,73,98072,11660,10342,16746480,1743,19873,8791,3832,Tag0,unknown
1499247502080,0,39,8.5693359375E-6,66,88,73,98072,11660,10342,16746480,1743,19873,8791,3832,Tag0,unknown
1499247502081,0,44,9.66796875E-6,66,88,73,98072,11660,10342,16746480,1743,19873,8791,3832,Tag0,unknown
1499247502081,0,50,1.0986328125E-5,66,88,73,98072,11660,10342,16746480,1743,19873,8791,3832,Tag0,unknown
1499247502081,0,65,1.42822265625E-5,66,88,73,98072,11660,10342,16746480,1743,19873,8791,3832,Tag0,unknown
1499247502081,0,86,1.8896484375000003E-5,66,88,73,98072,11660,10342,16746480,1743,19873,8791,3832,Tag0,unknown
1499247502082,0,99,2.1752929687500003E-5,66,88,73,98072,11660,10342,16746480,1743,19873,8791,3832,Tag0,unknown
1499247502082,0,92,2.021484375E-5,66,88,73,98072,11660,10342,16746480,1743,19873,8791,3832,Tag0,unknown
1499247502082,0,80,1.7578125E-5,66,88,73,98072,11660,10342,16746480,1743,19873,8791,3832,Tag0,unknown
1499247502083,0,88,1.93359375E-5,66,88,73,98072,11660,10342,16746480,1743,19873,8791,3832,Tag0,unknown
1499247502083,0,116,2.548828125E-5,66,88,73,98072,11660,10342,16746480,1743,19873,8791,3832,Tag0,unknown
1499247502083,0,-128,-2.8125E-5,66,88,73,98072,11660,10342,16746480,1743,19873,8791,3832,Tag0,unknown
1499247502083,0,114,2.5048828125000003E-5,66,88,73,98072,11660,10342,16746480,1743,19873,8791,3832,Tag0,unknown
1499247502084,0,92,2.021484375E-5,66,88,73,98072,11660,10342,16746480,1743,19873,8791,3832,Tag0,unknown
1499247502084,0,93,2.04345703125E-5,66,88,73,98072,11660,10342,16746480,1743,19873,8791,3832,Tag0,unknown
1499247502084,0,91,1.99951171875E-5,66,88,73,98072,11660,10342,16746480,1743,19873,8791,3832,Tag0,unknown
1499247502085,0,83,1.82373046875E-5,66,88,73,98072,11660,10342,16746480,1743,19873,8791,3832,Tag0,unknown
1499247502085,0,76,1.669921875E-5,66,88,73,98072,11660,10342,16746480,1743,19873,8791,3832,Tag0,unknown
1499247502086,0,71,1.56005859375E-5,66,88,73,98072,11660,10342,16746480,1743,19873,8791,3832,Tag0,unknown
1499247502086,0,49,1.07666015625E-5,66,88,73,98072,11660,10342,16746480,1743,19873,8791,3832,Tag0,unknown
1499247502086,0,35,7.6904296875E-6,66,88,73,98072,11660,10342,16746480,1743,19873,8791,3832,Tag0,unknown
1499247502087,0,67,1.4721679687500002E-5,66,88,73,98072,11660,10342,16746480,1743,19873,8791,3832,Tag0,unknown
1499247502087,0,122,2.6806640625E-5,66,88,73,98072,11660,10342,16746480,1743,19873,8791,3832,Tag0,unknown
1499247502087,0,-122,-2.6806640625E-5,66,88,73,98072,11660,10342,16746480,1743,19873,8791,3832,Tag0,unknown
1499247502087,0,102,2.2412109374999998E-5,66,88,73,98072,11660,10342,16746480,1743,19873,8791,3832,Tag0,unknown
1499247502088,0,75,1.64794921875E-5,66,88,73,98072,11660,10342,16746480,1743,19873,8791,3832,Tag0,unknown
1499247502088,0,86,1.8896484375000003E-5,66,88,73,98072,11660,10342,16746480,1743,19873,8791,3832,Tag0,unknown
1499247502088,0,116,2.548828125E-5,66,88,73,98072,11660,10342,16746480,1743,19873,8791,3832,Tag0,unknown
1499247502089,0,-128,-2.8125E-5,66,88,73,98072,11660,10342,16746480,1743,19873,8791,3832,Tag0,unknown
1499247502089,0,121,2.6586914062500003E-5,66,88,73,98072,11660,10342,16746480,1743,19873,8791,3832,Tag0,unknown
1499247502089,0,121,2.6586914062500003E-5,66,88,73,98072,11660,10342,16746480,1743,19873,8791,3832,Tag0,unknown
1499247502090,0,102,2.2412109374999998E-5,66,88,73,98072,11660,10342,16746480,1743,19873,8791,3832,Tag0,unknown
1499247502090,0,68,1.4941406250000001E-5,66,88,73,98072,11660,10342,16746480,1743,19873,8791,3832,Tag0,unknown
1499247502090,0,36,7.91015625E-6,66,88,73,98072,11660,10342,16746480,1743,19873,8791,3832,Tag0,unknown
1499247502091,0,13,2.8564453125E-6,66,88,73,98072,11660,10342,16746480,1743,19873,8791,3832,Tag0,unknown
1499247502091,0,18,3.955078125E-6,66,88,73,98072,11660,10342,16746480,1743,19873,8791,3832,Tag0,unknown
1499247502091,0,37,8.1298828125E-6,66,88,73,98072,11660,10342,16746480,1743,19873,8791,3832,Tag0,unknown
1499247502092,0,43,9.448242187500001E-6,66,88,73,98072,11660,10342,16746480,1743,19873,8791,3832,Tag0,unknown
1499247502092,0,4,8.7890625E-7,66,88,73,98072,11660,10342,16746480,1743,19873,8791,3832,Tag0,unknown
1499247502092,0,-306,-6.723632812500001E-5,66,88,73,98072,11660,10342,16746480,1743,19873,8791,3832,Tag0,unknown
1499247502093,0,-298,-6.5478515625E-5,66,88,73,98072,11660,10342,16746480,1743,19873,8791,3832,Tag0,unknown
1499247502093,0,9,1.9775390625E-6,66,88,73,98072,11660,10342,16746480,1743,19873,8791,3832,Tag0,unknown
1499247502093,0,57,1.2524414062500001E-5,66,88,73,98072,11660,10342,16746480,1743,19873,8791,3832,Tag0,unknown
1499247502094,0,73,1.6040039062500002E-5,66,88,73,98072,11660,10342,16746480,1743,19873,8791,3832,Tag0,unknown
1499247502094,0,75,1.64794921875E-5,66,88,73,98072,11660,10342,16746480,1743,19873,8791,3832,Tag0,unknown
1499247502094,0,72,1.58203125E-5,66,88,73,98072,11660,10342,16746480,1743,19873,8791,3832,Tag0,unknown
1499247502095,0,61,1.34033203125E-5,66,88,73,98072,11660,10342,16746480,1743,19873,8791,3832,Tag0,unknown
1499247502095,0,52,1.142578125E-5,66,88,73,98072,11660,10342,16746480,1743,19873,8791,3832,Tag0,unknown
1499247502095,0,52,1.142578125E-5,66,88,73,98072,11660,10342,16746480,1743,19873,8791,3832,Tag0,unknown
1499247502096,0,69,1.51611328125E-5,66,88,73,98072,11660,10342,16746480,1743,19873,8791,3832,Tag0,unknown
1499247502099,0,54,1.1865234375000001E-5,66,88,73,98072,11660,10342,16746480,1743,19873,8791,3832,Tag0,unknown
1499247502099,0,32,7.03125E-6,66,88,73,98072,11660,10342,16746480,1743,19873,8791,3832,Tag0,unknown
1499247502099,0,35,7.6904296875E-6,66,88,73,98072,11660,10342,16746480,1743,19873,8791,3832,Tag0,unknown
1499247502100,0,39,8.5693359375E-6,66,88,73,98072,11660,10342,16746480,1743,19873,8791,3832,Tag0,unknown
1499247502100,0,41,9.008789062499999E-6,66,88,73,98072,11660,10342,16746480,1743,19873,8791,3832,Tag0,unknown
1499247502100,0,38,8.349609375E-6,66,88,73,98072,11660,10342,16746480,1743,19873,8791,3832,Tag0,unknown
1499247502101,0,29,6.3720703125E-6,66,88,73,98072,11660,10342,16746480,1743,19873,8791,3832,Tag0,unknown
1499247502101,0,24,5.2734375E-6,66,88,73,98072,11660,10342,16746480,1743,19873,8791,3832,Tag0,unknown
1499247502101,0,23,5.0537109375E-6,66,88,73,98072,11660,10342,16746480,1743,19873,8791,3832,Tag0,unknown
1499247502101,0,25,5.4931640625E-6,66,88,73,98072,11660,10342,16746480,1743,19873,8791,3832,Tag0,unknown
1499247502102,0,51,1.1206054687499999E-5,66,88,73,98072,11660,10342,16746480,1743,19873,8791,3832,Tag0,unknown
1499247502102,0,91,1.99951171875E-5,66,88,73,98072,11660,10342,16746480,1743,19873,8791,3832,Tag0,unknown
1499247502102,0,107,2.35107421875E-5,66,88,73,98072,11660,10342,16746480,1743,19873,8791,3832,Tag0,unknown
1499247502102,0,90,1.9775390625E-5,66,88,73,98072,11660,10342,16746480,1743,19873,8791,3832,Tag0,unknown
1499247502102,0,74,1.6259765625E-5,66,88,73,98072,11660,10342,16746480,1743,19873,8791,3832,Tag0,unknown
1499247502103,0,67,1.4721679687500002E-5,66,88,73,98072,11660,10342,16746480,1743,19873,8791,3832,Tag0,unknown
1499247502103,0,70,1.5380859375E-5,66,88,73,98072,11660,10342,16746480,1743,19873,8791,3832,Tag0,unknown
1499247502103,0,90,1.9775390625E-5,66,88,73,98072,11660,10342,16746480,1743,19873,8791,3832,Tag0,unknown
1499247502103,0,114,2.5048828125000003E-5,66,88,73,98072,11660,10342,16746480,1743,19873,8791,3832,Tag0,unknown
1499247502104,0,124,2.724609375E-5,66,88,73,98072,11660,10342,16746480,1743,19873,8791,3832,Tag0,unknown
1499247502104,0,114,2.5048828125000003E-5,66,88,73,98072,11660,10342,16746480,1743,19873,8791,3832,Tag0,unknown
1499247502104,0,91,1.99951171875E-5,66,88,73,98072,11660,10342,16746480,1743,19873,8791,3832,Tag0,unknown
1499247502104,0,96,2.109375E-5,66,88,73,98072,11660,10342,16746480,1743,19873,8791,3832,Tag0,unknown
1499247502105,0,102,2.2412109374999998E-5,66,88,73,98072,11660,10342,16746480,1743,19873,8791,3832,Tag0,unknown
1499247502105,0,112,2.4609375E-5,66,88,73,98072,11660,10342,16746480,1743,19873,8791,3832,Tag0,unknown
1499247502107,0,117,2.5708007812499998E-5,66,88,73,98072,11660,10342,16746480,1743,19873,8791,3832,Tag0,unknown
1499247502107,0,114,2.5048828125000003E-5,66,88,73,98072,11660,10342,16746480,1743,19873,8791,3832,Tag0,unknown
1499247502107,0,113,2.48291015625E-5,66,88,73,98072,11660,10342,16746480,1743,19873,8791,3832,Tag0,unknown
1499247502108,0,116,2.548828125E-5,66,88,73,98072,11660,10342,16746480,1743,19873,8791,3832,Tag0,unknown
1499247502108,0,123,2.70263671875E-5,66,88,73,98072,11660,10342,16746480,1743,19873,8791,3832,Tag0,unknown
1499247502108,0,115,2.52685546875E-5,66,88,73,98072,11660,10342,16746480,1743,19873,8791,3832,Tag0,unknown
1499247502108,0,74,1.6259765625E-5,66,88,73,98072,11660,10342,16746480,1743,19873,8791,3832,Tag0,unknown
1499247502109,0,50,1.0986328125E-5,66,88,73,98072,11660,10342,16746480,1743,19873,8791,3832,Tag0,unknown
1499247502109,0,70,1.5380859375E-5,66,88,73,98072,11660,10342,16746480,1743,19873,8791,3832,Tag0,unknown
1499247502109,0,89,1.95556640625E-5,66,88,73,98072,11660,10342,16746480,1743,19873,8791,3832,Tag0,unknown
1499247502109,0,74,1.6259765625E-5,66,88,73,98072,11660,10342,16746480,1743,19873,8791,3832,Tag0,unknown
1499247502110,0,51,1.1206054687499999E-5,66,88,73,98072,11660,10342,16746480,1743,19873,8791,3832,Tag0,unknown
1499247502110,0,44,9.66796875E-6,66,88,73,98072,11660,10342,16746480,1743,19873,8791,3832,Tag0,unknown
1499247502110,0,67,1.4721679687500002E-5,66,88,73,98072,11660,10342,16746480,1743,19873,8791,3832,Tag0,unknown
1499247502110,0,100,2.197265625E-5,66,88,73,98072,11660,10342,16746480,1743,19873,8791,3832,Tag0,unknown
1499247502111,0,116,2.548828125E-5,66,88,73,98072,11660,10342,16746480,1743,19873,8791,3832,Tag0,unknown
1499247502111,0,119,2.6147460937500004E-5,66,88,73,98072,11660,10342,16746480,1743,19873,8791,3832,Tag0,unknown
1499247502111,0,108,2.3730468750000002E-5,66,88,73,98072,11660,10342,16746480,1743,19873,8791,3832,Tag0,unknown
1499247502111,0,101,2.2192382812500002E-5,66,88,73,98072,11660,10342,16746480,1743,19873,8791,3832,Tag0,unknown
1499247502112,0,116,2.548828125E-5,66,88,73,98072,11660,10342,16746480,1743,19873,8791,3832,Tag0,unknown
1499247502112,0,-127,-2.79052734375E-5,66,88,73,98072,11660,10342,16746480,1743,19873,8791,3832,Tag0,unknown
1499247502112,0,113,2.48291015625E-5,66,88,73,98072,11660,10342,16746480,1743,19873,8791,3832,Tag0,unknown
1499247502112,0,92,2.021484375E-5,66,88,73,98072,11660,10342,16746480,1743,19873,8791,3832,Tag0,unknown
1499247502113,0,90,1.9775390625E-5,66,88,73,98072,11660,10342,16746480,1743,19873,8791,3832,Tag0,unknown
1499247502113,0,93,2.04345703125E-5,66,88,73,98072,11660,10342,16746480,1743,19873,8791,3832,Tag0,unknown
1499247502113,0,87,1.91162109375E-5,66,88,73,98072,11660,10342,16746480,1743,19873,8791,3832,Tag0,unknown
1499247502113,0,75,1.64794921875E-5,66,88,73,98072,11660,10342,16746480,1743,19873,8791,3832,Tag0,unknown
1499247502114,0,77,1.69189453125E-5,66,88,73,98072,11660,10342,16746480,1743,19873,8791,3832,Tag0,unknown
1499247502114,0,85,1.86767578125E-5,66,88,73,98072,11660,10342,16746480,1743,19873,8791,3832,Tag0,unknown
1499247502114,0,88,1.93359375E-5,66,88,73,98072,11660,10342,16746480,1743,19873,8791,3832,Tag0,unknown
1499247502114,0,99,2.1752929687500003E-5,66,88,73,98072,11660,10342,16746480,1743,19873,8791,3832,Tag0,unknown
1499247502115,0,102,2.2412109374999998E-5,66,88,73,98072,11660,10342,16746480,1743,19873,8791,3832,Tag0,unknown
1499247502115,0,93,2.04345703125E-5,66,88,73,98072,11660,10342,16746480,1743,19873,8791,3832,Tag0,unknown
1499247502115,0,77,1.69189453125E-5,66,88,73,98072,11660,10342,16746480,1743,19873,8791,3832,Tag0,unknown
1499247502116,0,67,1.4721679687500002E-5,66,88,73,98072,11660,10342,16746480,1743,19873,8791,3832,Tag0,unknown
1499247502117,0,64,1.40625E-5,66,88,73,98072,11660,10342,16746480,1743,19873,8791,3832,Tag0,unknown
1499247502117,0,69,1.51611328125E-5,66,88,73,98072,11660,10342,16746480,1743,19873,8791,3832,Tag0,unknown
1499247502117,0,89,1.95556640625E-5,66,88,73,98072,11660,10342,16746480,1743,19873,8791,3832,Tag0,unknown
1499247502117,0,86,1.8896484375000003E-5,66,88,73,98072,11660,10342,16746480,1743,19873,8791,3832,Tag0,unknown
1499247502118,0,51,1.1206054687499999E-5,66,88,73,98072,11660,10342,16746480,1743,19873,8791,3832,Tag0,unknown
1499247502118,0,35,7.6904296875E-6,66,88,73,98072,11660,10342,16746480,1743,19873,8791,3832,Tag0,unknown
1499247502118,0,73,1.6040039062500002E-5,66,88,73,98072,11660,10342,16746480,1743,19873,8791,3832,Tag0,unknown
1499247502118,0,120,2.63671875E-5,66,88,73,98072,11660,10342,16746480,1743,19873,8791,3832,Tag0,unknown
1499247502118,0,-125,-2.74658203125E-5,66,88,73,98072,11660,10342,16746480,1743,19873,8791,3832,Tag0,unknown
1499247502119,0,103,2.26318359375E-5,66,88,73,98072,11660,10342,16746480,1743,19873,8791,3832,Tag0,unknown
1499247502119,0,80,1.7578125E-5,66,88,73,98072,11660,10342,16746480,1743,19873,8791,3832,Tag0,unknown
1499247502119,0,69,1.51611328125E-5,66,88,73,98072,11660,10342,16746480,1743,19873,8791,3832,Tag0,unknown
1499247502120,0,66,1.4501953125E-5,66,88,73,98072,11660,10342,16746480,1743,19873,8791,3832,Tag0,unknown
1499247502120,0,70,1.5380859375E-5,66,88,73,98072,11660,10342,16746480,1743,19873,8791,3832,Tag0,unknown
