timestampMs,poorSignal,eegRawValue,eegRawValueVolts,attention,meditation,blinkStrength,delta,theta,alphaLow,alphaHigh,betaLow,betaHigh,gammaLow,gammaMid,tagEvent,location
1499247592813,0,-148,-3.251953125E-5,47,53,39,908630,162546,25754,31196,15648,17445,16560,4244,Tag0,unknown
1499247592813,0,-369,-8.10791015625E-5,47,53,39,908630,162546,25754,31196,15648,17445,16560,4244,Tag0,unknown
1499247592814,0,-317,-6.96533203125E-5,47,53,39,908630,162546,25754,31196,15648,17445,16560,4244,Tag0,unknown
1499247592814,0,-296,-6.50390625E-5,47,53,39,908630,162546,25754,31196,15648,17445,16560,4244,Tag0,unknown
1499247592814,0,-322,-7.0751953125E-5,47,53,39,908630,162546,25754,31196,15648,17445,16560,4244,Tag0,unknown
1499247592815,0,-318,-6.9873046875E-5,47,53,39,908630,162546,25754,31196,15648,17445,16560,4244,Tag0,unknown
1499247592815,0,-275,-6.04248046875E-5,47,53,39,908630,162546,25754,31196,15648,17445,16560,4244,Tag0,unknown
1499247592816,0,0,0.0,47,53,39,908630,162546,25754,31196,15648,17445,16560,4244,Tag0,unknown
1499247592816,0,2,4.39453125E-7,47,53,39,908630,162546,25754,31196,15648,17445,16560,4244,Tag0,unknown
1499247592817,0,-291,-6.39404296875E-5,47,53,39,908630,162546,25754,31196,15648,17445,16560,4244,Tag0,unknown
1499247592817,0,-326,-7.163085937500001E-5,47,53,39,908630,162546,25754,31196,15648,17445,16560,4244,Tag0,unknown
1499247592818,0,-322,-7.0751953125E-5,47,53,39,908630,162546,25754,31196,15648,17445,16560,4244,Tag0,unknown
1499247592818,0,-273,-5.998535156250001E-5,47,53,39,908630,162546,25754,31196,15648,17445,16560,4244,Tag0,unknown
1499247592819,0,36,7.91015625E-6,47,53,39,908630,162546,25754,31196,15648,17445,16560,4244,Tag0,unknown
1499247592822,0,89,1.95556640625E-5,47,53,76,908630,162546,25754,31196,15648,17445,16560,4244,Tag0,unknown
1499247592823,0,92,2.021484375E-5,47,53,76,908630,162546,25754,31196,15648,17445,16560,4244,Tag0,unknown
1499247592823,0,34,7.4707031250000005E-6,47,53,76,908630,162546,25754,31196,15648,17445,16560,4244,Tag0,unknown
1499247592824,0,-269,-5.9106445312499996E-5,47,53,76,908630,162546,25754,31196,15648,17445,16560,4244,Tag0,unknown
1499247592824,0,-267,-5.86669921875E-5,47,53,76,908630,162546,25754,31196,15648,17445,16560,4244,Tag0,unknown
1499247592825,0,27,5.9326171875000005E-6,47,53,76,908630,162546,25754,31196,15648,17445,16560,4244,Tag0,unknown
1499247592826,0,85,1.86767578125E-5,47,53,76,908630,162546,25754,31196,15648,17445,16560,4244,Tag0,unknown
1499247592826,0,106,2.3291015625000003E-5,47,53,76,908630,162546,25754,31196,15648,17445,16560,4244,Tag0,unknown
1499247592827,0,90,1.9775390625E-5,47,53,76,908630,162546,25754,31196,15648,17445,16560,4244,Tag0,unknown
1499247592827,0,88,1.93359375E-5,47,53,76,908630,162546,25754,31196,15648,17445,16560,4244,Tag0,unknown
1499247592828,0,96,2.109375E-5,47,53,76,908630,162546,25754,31196,15648,17445,16560,4244,Tag0,unknown
1499247592829,0,67,1.4721679687500002E-5,47,53,76,908630,162546,25754,31196,15648,17445,16560,4244,Tag0,unknown
1499247592829,0,19,4.1748046875E-6,47,53,76,908630,162546,25754,31196,15648,17445,16560,4244,Tag0,unknown
1499247592830,0,-265,-5.82275390625E-5,47,53,76,908630,162546,25754,31196,15648,17445,16560,4244,Tag0,unknown
1499247592830,0,-293,-6.43798828125E-5,47,53,76,908630,162546,25754,31196,15648,17445,16560,4244,Tag0,unknown
1499247592831,0,-280,-6.15234375E-5,47,53,76,908630,162546,25754,31196,15648,17445,16560,4244,Tag0,unknown
1499247592832,0,20,4.39453125E-6,47,53,76,908630,162546,25754,31196,15648,17445,16560,4244,Tag0,unknown
1499247592832,0,51,1.1206054687499999E-5,47,53,76,908630,162546,25754,31196,15648,17445,16560,4244,Tag0,unknown
1499247592833,0,43,9.448242187500001E-6,47,53,76,908630,162546,25754,31196,15648,17445,16560,4244,Tag0,unknown
1499247592833,0,40,8.7890625E-6,47,53,76,908630,162546,25754,31196,15648,17445,16560,4244,Tag0,unknown
1499247592834,0,37,8.1298828125E-6,47,53,76,908630,162546,25754,31196,15648,17445,16560,4244,Tag0,unknown
1499247592834,0,5,1.0986328125E-6,47,53,76,908630,162546,25754,31196,15648,17445,16560,4244,Tag0,unknown
1499247592835,0,-286,-6.2841796875E-5,47,53,76,908630,162546,25754,31196,15648,17445,16560,4244,Tag0,unknown
1499247592835,0,-270,-5.9326171875E-5,47,53,76,908630,162546,25754,31196,15648,17445,16560,4244,Tag0,unknown
1499247592836,0,65,1.42822265625E-5,47,53,76,908630,162546,25754,31196,15648,17445,16560,4244,Tag0,unknown
1499247592837,0,-105,-2.30712890625E-5,47,53,76,908630,162546,25754,31196,15648,17445,16560,4244,Tag0,unknown
1499247592837,0,-79,-1.7358398437500003E-5,47,53,76,908630,162546,25754,31196,15648,17445,16560,4244,Tag0,unknown
1499247592838,0,-125,-2.74658203125E-5,47,53,76,908630,162546,25754,31196,15648,17445,16560,4244,Tag0,unknown
1499247592839,0,28,6.15234375E-6,47,53,76,908630,162546,25754,31196,15648,17445,16560,4244,Tag0,unknown
1499247592839,0,-306,-6.723632812500001E-5,47,53,76,908630,162546,25754,31196,15648,17445,16560,4244,Tag0,unknown
1499247592840,0,-277,-6.0864257812500005E-5,47,53,76,908630,162546,25754,31196,15648,17445,16560,4244,Tag0,unknown
1499247592840,0,71,1.56005859375E-5,47,53,76,908630,162546,25754,31196,15648,17445,16560,4244,Tag0,unknown
1499247592841,0,-120,-2.63671875E-5,47,53,76,908630,162546,25754,31196,15648,17445,16560,4244,Tag0,unknown
1499247592842,0,-119,-2.6147460937500004E-5,47,53,76,908630,162546,25754,31196,15648,17445,16560,4244,Tag0,unknown
1499247592842,0,-115,-2.52685546875E-5,47,53,76,908630,162546,25754,31196,15648,17445,16560,4244,Tag0,unknown
1499247592843,0,-60,-1.318359375E-5,47,53,76,908630,162546,25754,31196,15648,17445,16560,4244,Tag0,unknown
1499247592844,0,-57,-1.2524414062500001E-5,47,53,76,908630,162546,25754,31196,15648,17445,16560,4244,Tag0,unknown
1499247592844,0,-95,-2.08740234375E-5,47,53,76,908630,162546,25754,31196,15648,17445,16560,4244,Tag0,unknown
1499247592844,0,-117,-2.5708007812499998E-5,47,53,76,908630,162546,25754,31196,15648,17445,16560,4244,Tag0,unknown
1499247592845,0,-112,-2.4609375E-5,47,53,76,908630,162546,25754,31196,15648,17445,16560,4244,Tag0,unknown
1499247592845,0,-56,-1.23046875E-5,47,53,76,908630,162546,25754,31196,15648,17445,16560,4244,Tag0,unknown
1499247592846,0,-27,-5.9326171875000005E-6,47,53,76,908630,162546,25754,31196,15648,17445,16560,4244,Tag0,unknown
1499247592847,0,-62,-1.3623046875E-5,47,53,76,908630,162546,25754,31196,15648,17445,16560,4244,Tag0,unknown
1499247592847,0,-111,-2.43896484375E-5,47,53,76,908630,162546,25754,31196,15648,17445,16560,4244,Tag0,unknown
1499247592848,0,109,2.39501953125E-5,47,53,76,908630,162546,25754,31196,15648,17445,16560,4244,Tag0,unknown
1499247592848,0,93,2.04345703125E-5,47,53,76,908630,162546,25754,31196,15648,17445,16560,4244,Tag0,unknown
1499247592849,0,90,1.9775390625E-5,47,53,76,908630,162546,25754,31196,15648,17445,16560,4244,Tag0,unknown
1499247592849,0,40,8.7890625E-6,47,53,76,908630,162546,25754,31196,15648,17445,16560,4244,Tag0,unknown
1499247592850,0,28,6.15234375E-6,47,53,76,908630,162546,25754,31196,15648,17445,16560,4244,Tag0,unknown
1499247592850,0,104,2.28515625E-5,47,53,76,908630,162546,25754,31196,15648,17445,16560,4244,Tag0,unknown
1499247592851,0,-63,-1.38427734375E-5,47,53,76,908630,162546,25754,31196,15648,17445,16560,4244,Tag0,unknown
1499247592852,0,-40,-8.7890625E-6,47,53,76,908630,162546,25754,31196,15648,17445,16560,4244,Tag0,unknown
1499247592852,0,-47,-1.0327148437500001E-5,47,53,76,908630,162546,25754,31196,15648,17445,16560,4244,Tag0,unknown
1499247592853,0,-37,-8.1298828125E-6,47,53,76,908630,162546,25754,31196,15648,17445,16560,4244,Tag0,unknown
1499247592853,0,265,5.82275390625E-5,47,53,76,908630,162546,25754,31196,15648,17445,16560,4244,Tag0,unknown
1499247592854,0,290,6.3720703125E-5,47,53,76,908630,162546,25754,31196,15648,17445,16560,4244,Tag0,unknown
1499247592854,0,-9,-1.9775390625E-6,47,53,76,908630,162546,25754,31196,15648,17445,16560,4244,Tag0,unknown
1499247592855,0,-51,-1.1206054687499999E-5,47,53,37,908630,162546,25754,31196,15648,17445,16560,4244,Tag0,unknown
1499247592855,0,-20,-4.39453125E-6,47,53,37,908630,162546,25754,31196,15648,17445,16560,4244,Tag0,unknown
1499247592856,0,340,7.470703125E-5,47,53,37,908630,162546,25754,31196,15648,17445,16560,4244,Tag0,unknown
1499247592857,0,140,3.076171875E-5,47,53,37,908630,162546,25754,31196,15648,17445,16560,4244,Tag0,unknown
1499247592858,0,137,3.0102539062499998E-5,47,53,37,908630,162546,25754,31196,15648,17445,16560,4244,Tag0,unknown
1499247592858,0,134,2.9443359375000003E-5,47,53,37,908630,162546,25754,31196,15648,17445,16560,4244,Tag0,unknown
1499247592859,0,374,8.2177734375E-5,47,53,37,908630,162546,25754,31196,15648,17445,16560,4244,Tag0,unknown
1499247592859,0,160,3.515625E-5,47,53,37,908630,162546,25754,31196,15648,17445,16560,4244,Tag0,unknown
1499247592860,0,544,1.1953125000000001E-4,47,53,37,908630,162546,25754,31196,15648,17445,16560,4244,Tag0,unknown
1499247592860,0,405,8.89892578125E-5,47,53,37,908630,162546,25754,31196,15648,17445,16560,4244,Tag0,unknown
1499247592861,0,436,9.580078125E-5,47,53,37,908630,162546,25754,31196,15648,17445,16560,4244,Tag0,unknown
1499247592861,0,433,9.51416015625E-5,47,53,37,908630,162546,25754,31196,15648,17445,16560,4244,Tag0,unknown
1499247592862,0,402,8.8330078125E-5,47,53,37,908630,162546,25754,31196,15648,17445,16560,4244,Tag0,unknown
1499247592862,0,588,1.2919921875E-4,47,53,37,908630,162546,25754,31196,15648,17445,16560,4244,Tag0,unknown
1499247592862,0,562,1.23486328125E-4,47,53,37,908630,162546,25754,31196,15648,17445,16560,4244,Tag0,unknown
1499247592863,0,595,1.307373046875E-4,47,53,37,908630,162546,25754,31196,15648,17445,16560,4244,Tag0,unknown
1499247592863,0,635,1.395263671875E-4,47,53,37,908630,162546,25754,31196,15648,17445,16560,4244,Tag0,unknown
1499247592863,0,633,1.3908691406250002E-4,47,53,37,908630,162546,25754,31196,15648,17445,16560,4244,Tag0,unknown
1499247592864,0,562,1.23486328125E-4,47,53,37,908630,162546,25754,31196,15648,17445,16560,4244,Tag0,unknown
1499247592864,0,217,4.76806640625E-5,47,53,37,908630,162546,25754,31196,15648,17445,16560,4244,Tag0,unknown
1499247592864,0,188,4.1308593750000004E-5,47,53,37,908630,162546,25754,31196,15648,17445,16560,4244,Tag0,unknown
1499247592865,0,215,4.72412109375E-5,47,53,37,908630,162546,25754,31196,15648,17445,16560,4244,Tag0,unknown
1499247592865,0,236,5.185546875E-5,47,53,37,908630,162546,25754,31196,15648,17445,16560,4244,Tag0,unknown
1499247592866,0,211,4.63623046875E-5,47,53,37,908630,162546,25754,31196,15648,17445,16560,4244,Tag0,unknown
1499247592867,0,179,3.93310546875E-5,47,53,37,908630,162546,25754,31196,15648,17445,16560,4244,Tag0,unknown
1499247592867,0,164,3.6035156249999995E-5,47,53,37,908630,162546,25754,31196,15648,17445,16560,4244,Tag0,unknown
1499247592868,0,371,8.151855468750001E-5,47,53,37,908630,162546,25754,31196,15648,17445,16560,4244,Tag0,unknown
1499247592868,0,304,6.6796875E-5,47,53,37,908630,162546,25754,31196,15648,17445,16560,4244,Tag0,unknown
1499247592869,0,257,5.64697265625E-5,47,53,37,908630,162546,25754,31196,15648,17445,16560,4244,Tag0,unknown
1499247592870,0,-23,-5.0537109375E-6,47,53,37,908630,162546,25754,31196,15648,17445,16560,4244,Tag0,unknown
1499247592870,0,-45,-9.8876953125E-6,47,53,37,908630,162546,25754,31196,15648,17445,16560,4244,Tag0,unknown
1499247592871,0,-103,-2.26318359375E-5,47,53,37,908630,162546,25754,31196,15648,17445,16560,4244,Tag0,unknown
1499247592872,0,118,2.5927734375E-5,47,53,37,908630,162546,25754,31196,15648,17445,16560,4244,Tag0,unknown
1499247592872,0,-115,-2.52685546875E-5,47,53,37,908630,162546,25754,31196,15648,17445,16560,4244,Tag0,unknown
1499247592873,0,114,2.5048828125000003E-5,47,53,37,908630,162546,25754,31196,15648,17445,16560,4244,Tag0,unknown
1499247592874,0,48,1.0546875E-5,47,53,37,908630,162546,25754,31196,15648,17445,16560,4244,Tag0,unknown
1499247592874,0,38,8.349609375E-6,47,53,37,908630,162546,25754,31196,15648,17445,16560,4244,Tag0,unknown
1499247592875,0,76,1.669921875E-5,47,53,37,908630,162546,25754,31196,15648,17445,16560,4244,Tag0,unknown
1499247592876,0,74,1.6259765625E-5,47,53,37,908630,162546,25754,31196,15648,17445,16560,4244,Tag0,unknown
1499247592876,0,-275,-6.04248046875E-5,47,53,37,908630,162546,25754,31196,15648,17445,16560,4244,Tag0,unknown
1499247592877,0,-360,-7.91015625E-5,47,53,37,908630,162546,25754,31196,15648,17445,16560,4244,Tag0,unknown
1499247592877,0,-376,-8.261718750000001E-5,47,53,37,908630,162546,25754,31196,15648,17445,16560,4244,Tag0,unknown
1499247592878,0,-369,-8.10791015625E-5,47,53,37,908630,162546,25754,31196,15648,17445,16560,4244,Tag0,unknown
1499247592878,0,-328,-7.207031249999999E-5,47,53,37,908630,162546,25754,31196,15648,17445,16560,4244,Tag0,unknown
1499247592879,0,-346,-7.6025390625E-5,47,53,37,908630,162546,25754,31196,15648,17445,16560,4244,Tag0,unknown
1499247592879,0,-180,-3.955078125E-5,47,53,37,908630,162546,25754,31196,15648,17445,16560,4244,Tag0,unknown
1499247592879,0,-232,-5.09765625E-5,47,53,37,908630,162546,25754,31196,15648,17445,16560,4244,Tag0,unknown
1499247592880,0,-517,-1.135986328125E-4,47,53,37,908630,162546,25754,31196,15648,17445,16560,4244,Tag0,unknown
1499247592880,0,-523,-1.149169921875E-4,47,53,37,908630,162546,25754,31196,15648,17445,16560,4244,Tag0,unknown
1499247592880,0,-517,-1.135986328125E-4,47,53,37,908630,162546,25754,31196,15648,17445,16560,4244,Tag0,unknown
1499247592880,0,-246,-5.4052734375E-5,47,53,37,908630,162546,25754,31196,15648,17445,16560,4244,Tag0,unknown
1499247592881,0,-227,-4.98779296875E-5,47,53,37,908630,162546,25754,31196,15648,17445,16560,4244,Tag0,unknown
1499247592881,0,-228,-5.0097656250000005E-5,47,53,37,908630,162546,25754,31196,15648,17445,16560,4244,Tag0,unknown
1499247592881,0,-230,-5.0537109375E-5,47,53,37,908630,162546,25754,31196,15648,17445,16560,4244,Tag0,unknown
1499247592882,0,-517,-1.135986328125E-4,47,53,37,908630,162546,25754,31196,15648,17445,16560,4244,Tag0,unknown
1499247592882,0,-581,-1.276611328125E-4,47,53,37,908630,162546,25754,31196,15648,17445,16560,4244,Tag0,unknown
1499247592883,0,-628,-1.3798828125E-4,47,53,37,908630,162546,25754,31196,15648,17445,16560,4244,Tag0,unknown
1499247592883,0,-600,-1.318359375E-4,47,53,37,908630,162546,25754,31196,15648,17445,16560,4244,Tag0,unknown
1499247592884,0,-513,-1.127197265625E-4,47,53,37,908630,162546,25754,31196,15648,17445,16560,4244,Tag0,unknown
1499247592884,0,-219,-4.81201171875E-5,47,53,37,908630,162546,25754,31196,15648,17445,16560,4244,Tag0,unknown
1499247592887,0,-235,-5.16357421875E-5,47,53,37,908630,162546,25754,31196,15648,17445,16560,4244,Tag0,unknown
1499247592891,0,-526,-1.1557617187500001E-4,47,53,37,908630,162546,25754,31196,15648,17445,16560,4244,Tag0,unknown
1499247592891,0,-618,-1.35791015625E-4,47,53,37,908630,162546,25754,31196,15648,17445,16560,4244,Tag0,unknown
1499247592892,0,-423,-9.29443359375E-5,47,53,37,908630,162546,25754,31196,15648,17445,16560,4244,Tag0,unknown
1499247592892,0,-389,-8.54736328125E-5,47,53,37,908630,162546,25754,31196,15648,17445,16560,4244,Tag0,unknown
1499247592893,0,-548,-1.2041015624999999E-4,47,53,37,908630,162546,25754,31196,15648,17445,16560,4244,Tag0,unknown
1499247592893,0,-201,-4.41650390625E-5,47,53,37,908630,162546,25754,31196,15648,17445,16560,4244,Tag0,unknown
1499247592893,0,-181,-3.9770507812500004E-5,47,53,37,908630,162546,25754,31196,15648,17445,16560,4244,Tag0,unknown
1499247592894,0,-213,-4.68017578125E-5,47,53,37,908630,162546,25754,31196,15648,17445,16560,4244,Tag0,unknown
1499247592894,0,-215,-4.72412109375E-5,47,53,37,908630,162546,25754,31196,15648,17445,16560,4244,Tag0,unknown
1499247592894,0,-173,-3.80126953125E-5,47,53,37,908630,162546,25754,31196,15648,17445,16560,4244,Tag0,unknown
1499247592895,0,-193,-4.2407226562500005E-5,47,53,37,908630,162546,25754,31196,15648,17445,16560,4244,Tag0,unknown
1499247592897,0,-226,-4.9658203125E-5,47,53,37,908630,162546,25754,31196,15648,17445,16560,4244,Tag0,unknown
1499247592897,0,-241,-5.29541015625E-5,47,53,37,908630,162546,25754,31196,15648,17445,16560,4244,Tag0,unknown
1499247592898,0,-236,-5.185546875E-5,47,53,37,908630,162546,25754,31196,15648,17445,16560,4244,Tag0,unknown
1499247592898,0,-220,-4.833984375E-5,47,53,37,908630,162546,25754,31196,15648,17445,16560,4244,Tag0,unknown
1499247592899,0,-199,-4.3725585937499995E-5,47,53,37,908630,162546,25754,31196,15648,17445,16560,4244,Tag0,unknown
1499247592899,0,-196,-4.306640625E-5,47,53,37,908630,162546,25754,31196,15648,17445,16560,4244,Tag0,unknown
1499247592900,0,-201,-4.41650390625E-5,47,53,37,908630,162546,25754,31196,15648,17445,16560,4244,Tag0,unknown
1499247592900,0,-178,-3.9111328125E-5,47,53,37,908630,162546,25754,31196,15648,17445,16560,4244,Tag0,unknown
1499247592901,0,-363,-7.97607421875E-5,47,53,37,908630,162546,25754,31196,15648,17445,16560,4244,Tag0,unknown
1499247592901,0,-293,-6.43798828125E-5,47,53,37,908630,162546,25754,31196,15648,17445,16560,4244,Tag0,unknown
1499247592901,0,-300,-6.591796875E-5,47,53,37,908630,162546,25754,31196,15648,17445,16560,4244,Tag0,unknown
1499247592902,0,-342,-7.5146484375E-5,47,53,37,908630,162546,25754,31196,15648,17445,16560,4244,Tag0,unknown
1499247592902,0,-327,-7.18505859375E-5,47,53,37,908630,162546,25754,31196,15648,17445,16560,4244,Tag0,unknown
1499247592903,0,-266,-5.8447265625E-5,47,53,37,908630,162546,25754,31196,15648,17445,16560,4244,Tag0,unknown
1499247592903,0,22,4.833984375E-6,47,53,37,908630,162546,25754,31196,15648,17445,16560,4244,Tag0,unknown
1499247592904,0,7,1.5380859375E-6,47,53,37,908630,162546,25754,31196,15648,17445,16560,4244,Tag0,unknown
1499247592904,0,-293,-6.43798828125E-5,47,53,37,908630,162546,25754,31196,15648,17445,16560,4244,Tag0,unknown
1499247592904,0,-353,-7.75634765625E-5,47,53,37,908630,162546,25754,31196,15648,17445,16560,4244,Tag0,unknown
1499247592905,0,-382,-8.3935546875E-5,47,53,37,908630,162546,25754,31196,15648,17445,16560,4244,Tag0,unknown
1499247592905,0,-358,-7.8662109375E-5,47,53,37,908630,162546,25754,31196,15648,17445,16560,4244,Tag0,unknown
1499247592905,0,-310,-6.8115234375E-5,47,53,37,908630,162546,25754,31196,15648,17445,16560,4244,Tag0,unknown
1499247592906,0,-281,-6.17431640625E-5,47,53,37,908630,162546,25754,31196,15648,17445,16560,4244,Tag0,unknown
1499247592906,0,-261,-5.73486328125E-5,47,53,37,908630,162546,25754,31196,15648,17445,16560,4244,Tag0,unknown
1499247592906,0,16,3.515625E-6,47,53,37,908630,162546,25754,31196,15648,17445,16560,4244,Tag0,unknown
1499247592907,0,16,3.515625E-6,47,53,37,908630,162546,25754,31196,15648,17445,16560,4244,Tag0,unknown
1499247592907,0,27,5.9326171875000005E-6,47,53,37,908630,162546,25754,31196,15648,17445,16560,4244,Tag0,unknown
1499247592907,0,54,1.1865234375000001E-5,47,53,78,908630,162546,25754,31196,15648,17445,16560,4244,Tag0,unknown
1499247592908,0,80,1.7578125E-5,47,53,78,908630,162546,25754,31196,15648,17445,16560,4244,Tag0,unknown
1499247592908,0,59,1.29638671875E-5,47,53,78,908630,162546,25754,31196,15648,17445,16560,4244,Tag0,unknown
1499247592908,0,0,0.0,47,53,78,908630,162546,25754,31196,15648,17445,16560,4244,Tag0,unknown
1499247592908,0,-281,-6.17431640625E-5,47,53,78,908630,162546,25754,31196,15648,17445,16560,4244,Tag0,unknown
1499247592909,0,5,1.0986328125E-6,47,53,78,908630,162546,25754,31196,15648,17445,16560,4244,Tag0,unknown
1499247592909,0,41,9.008789062499999E-6,47,53,78,908630,162546,25754,31196,15648,17445,16560,4244,Tag0,unknown
1499247592910,0,49,1.07666015625E-5,47,53,78,908630,162546,25754,31196,15648,17445,16560,4244,Tag0,unknown
1499247592910,0,16,3.515625E-6,47,53,78,908630,162546,25754,31196,15648,17445,16560,4244,Tag0,unknown
1499247592911,0,3,6.591796875E-7,47,53,78,908630,162546,25754,31196,15648,17445,16560,4244,Tag0,unknown
1499247592911,0,39,8.5693359375E-6,47,53,78,908630,162546,25754,31196,15648,17445,16560,4244,Tag0,unknown
1499247592912,0,100,2.197265625E-5,47,53,78,908630,162546,25754,31196,15648,17445,16560,4244,Tag0,unknown
1499247592912,0,112,2.4609375E-5,47,53,78,908630,162546,25754,31196,15648,17445,16560,4244,Tag0,unknown
1499247592912,0,58,1.2744140625E-5,47,53,78,908630,162546,25754,31196,15648,17445,16560,4244,Tag0,unknown
1499247592913,0,35,7.6904296875E-6,47,53,78,908630,162546,25754,31196,15648,17445,16560,4244,Tag0,unknown
1499247592913,0,52,1.142578125E-5,47,53,78,908630,162546,25754,31196,15648,17445,16560,4244,Tag0,unknown
1499247592913,0,53,1.1645507812500002E-5,47,53,78,908630,162546,25754,31196,15648,17445,16560,4244,Tag0,unknown
1499247592914,0,52,1.142578125E-5,47,53,78,908630,162546,25754,31196,15648,17445,16560,4244,Tag0,unknown
1499247592914,0,64,1.40625E-5,47,53,78,908630,162546,25754,31196,15648,17445,16560,4244,Tag0,unknown
1499247592915,0,74,1.6259765625E-5,47,53,78,908630,162546,25754,31196,15648,17445,16560,4244,Tag0,unknown
1499247592915,0,85,1.86767578125E-5,47,53,78,908630,162546,25754,31196,15648,17445,16560,4244,Tag0,unknown
1499247592916,0,108,2.3730468750000002E-5,47,53,78,908630,162546,25754,31196,15648,17445,16560,4244,Tag0,unknown
1499247592917,0,124,2.724609375E-5,47,53,78,908630,162546,25754,31196,15648,17445,16560,4244,Tag0,unknown
1499247592917,0,89,1.95556640625E-5,47,53,78,908630,162546,25754,31196,15648,17445,16560,4244,Tag0,unknown
1499247592917,0,25,5.4931640625E-6,47,53,78,908630,162546,25754,31196,15648,17445,16560,4244,Tag0,unknown
1499247592918,0,-258,-5.6689453125000004E-5,47,53,78,908630,162546,25754,31196,15648,17445,16560,4244,Tag0,unknown
1499247592918,0,-257,-5.64697265625E-5,47,53,78,908630,162546,25754,31196,15648,17445,16560,4244,Tag0,unknown
1499247592918,0,50,1.0986328125E-5,47,53,78,908630,162546,25754,31196,15648,17445,16560,4244,Tag0,unknown
1499247592919,0,-123,-2.70263671875E-5,47,53,78,908630,162546,25754,31196,15648,17445,16560,4244,Tag0,unknown
1499247592919,0,-99,-2.1752929687500003E-5,47,53,78,908630,162546,25754,31196,15648,17445,16560,4244,Tag0,unknown
1499247592919,0,115,2.52685546875E-5,47,53,78,908630,162546,25754,31196,15648,17445,16560,4244,Tag0,unknown
1499247592920,0,68,1.4941406250000001E-5,47,53,78,908630,162546,25754,31196,15648,17445,16560,4244,Tag0,unknown
1499247592920,0,97,2.13134765625E-5,47,53,78,908630,162546,25754,31196,15648,17445,16560,4244,Tag0,unknown
1499247592920,0,-127,-2.79052734375E-5,47,53,78,908630,162546,25754,31196,15648,17445,16560,4244,Tag0,unknown
1499247592921,0,120,2.63671875E-5,47,53,78,908630,162546,25754,31196,15648,17445,16560,4244,Tag0,unknown
1499247592921,0,124,2.724609375E-5,47,53,78,908630,162546,25754,31196,15648,17445,16560,4244,Tag0,unknown
1499247592922,0,-101,-2.2192382812500002E-5,47,53,78,908630,162546,25754,31196,15648,17445,16560,4244,Tag0,unknown
1499247592922,0,-90,-1.9775390625E-5,47,53,78,908630,162546,25754,31196,15648,17445,16560,4244,Tag0,unknown
1499247592922,0,-123,-2.70263671875E-5,47,53,78,908630,162546,25754,31196,15648,17445,16560,4244,Tag0,unknown
1499247592923,0,32,7.03125E-6,47,53,78,908630,162546,25754,31196,15648,17445,16560,4244,Tag0,unknown
1499247592923,0,-290,-6.3720703125E-5,47,53,78,908630,162546,25754,31196,15648,17445,16560,4244,Tag0,unknown
1499247592928,0,-265,-5.82275390625E-5,47,53,78,908630,162546,25754,31196,15648,17445,16560,4244,Tag0,unknown
1499247592929,0,39,8.5693359375E-6,47,53,78,908630,162546,25754,31196,15648,17445,16560,4244,Tag0,unknown
1499247592929,0,76,1.669921875E-5,47,53,78,908630,162546,25754,31196,15648,17445,16560,4244,Tag0,unknown
1499247592929,0,105,2.30712890625E-5,47,53,78,908630,162546,25754,31196,15648,17445,16560,4244,Tag0,unknown
1499247592930,0,114,2.5048828125000003E-5,47,53,78,908630,162546,25754,31196,15648,17445,16560,4244,Tag0,unknown
1499247592930,0,119,2.6147460937500004E-5,47,53,78,908630,162546,25754,31196,15648,17445,16560,4244,Tag0,unknown
1499247592930,0,121,2.6586914062500003E-5,47,53,78,908630,162546,25754,31196,15648,17445,16560,4244,Tag0,unknown
1499247592931,0,-120,-2.63671875E-5,47,53,78,908630,162546,25754,31196,15648,17445,16560,4244,Tag0,unknown
1499247592931,0,-90,-1.9775390625E-5,47,53,78,908630,162546,25754,31196,15648,17445,16560,4244,Tag0,unknown
1499247592931,0,-77,-1.69189453125E-5,47,53,78,908630,162546,25754,31196,15648,17445,16560,4244,Tag0,unknown
1499247592932,0,-73,-1.6040039062500002E-5,47,53,78,908630,162546,25754,31196,15648,17445,16560,4244,Tag0,unknown
1499247592932,0,-118,-2.5927734375E-5,47,53,78,908630,162546,25754,31196,15648,17445,16560,4244,Tag0,unknown
1499247592933,0,75,1.64794921875E-5,47,53,78,908630,162546,25754,31196,15648,17445,16560,4244,Tag0,unknown
1499247592933,0,54,1.1865234375000001E-5,47,53,78,908630,162546,25754,31196,15648,17445,16560,4244,Tag0,unknown
1499247592933,0,67,1.4721679687500002E-5,47,53,78,908630,162546,25754,31196,15648,17445,16560,4244,Tag0,unknown
1499247592934,0,105,2.30712890625E-5,47,53,78,908630,162546,25754,31196,15648,17445,16560,4244,Tag0,unknown
1499247592934,0,-108,-2.3730468750000002E-5,47,53,78,908630,162546,25754,31196,15648,17445,16560,4244,Tag0,unknown
1499247592935,0,-73,-1.6040039062500002E-5,47,53,78,908630,162546,25754,31196,15648,17445,16560,4244,Tag0,unknown
1499247592935,0,-124,-2.724609375E-5,47,53,78,908630,162546,25754,31196,15648,17445,16560,4244,Tag0,unknown
1499247592936,0,40,8.7890625E-6,47,53,78,908630,162546,25754,31196,15648,17445,16560,4244,Tag0,unknown
1499247592937,0,51,1.1206054687499999E-5,47,53,78,908630,162546,25754,31196,15648,17445,16560,4244,Tag0,unknown
1499247592937,0,115,2.52685546875E-5,47,53,78,908630,162546,25754,31196,15648,17445,16560,4244,Tag0,unknown
1499247592937,0,119,2.6147460937500004E-5,47,53,78,908630,162546,25754,31196,15648,17445,16560,4244,Tag0,unknown
1499247592937,0,80,1.7578125E-5,47,53,78,908630,162546,25754,31196,15648,17445,16560,4244,Tag0,unknown
1499247592937,0,56,1.23046875E-5,47,53,78,908630,162546,25754,31196,15648,17445,16560,4244,Tag0,unknown
1499247592938,0,37,8.1298828125E-6,47,53,78,908630,162546,25754,31196,15648,17445,16560,4244,Tag0,unknown
1499247592938,0,28,6.15234375E-6,47,53,78,908630,162546,25754,31196,15648,17445,16560,4244,Tag0,unknown
1499247592938,0,77,1.69189453125E-5,47,53,78,908630,162546,25754,31196,15648,17445,16560,4244,Tag0,unknown
1499247592938,0,-127,-2.79052734375E-5,47,53,78,908630,162546,25754,31196,15648,17445,16560,4244,Tag0,unknown
1499247592938,0,103,2.26318359375E-5,47,53,78,908630,162546,25754,31196,15648,17445,16560,4244,Tag0,unknown
1499247592970,0,76,1.669921875E-5,47,53,78,908630,162546,25754,31196,15648,17445,16560,4244,Tag0,unknown
1499247592970,0,123,2.70263671875E-5,47,53,78,908630,162546,25754,31196,15648,17445,16560,4244,Tag0,unknown
1499247592970,0,-71,-1.56005859375E-5,47,53,78,908630,162546,25754,31196,15648,17445,16560,4244,Tag0,unknown
1499247592979,0,-79,-1.7358398437500003E-5,47,53,78,908630,162546,25754,31196,15648,17445,16560,4244,Tag0,unknown
1499247592980,0,-118,-2.5927734375E-5,47,53,78,908630,162546,25754,31196,15648,17445,16560,4244,Tag0,unknown
1499247592980,0,121,2.6586914062500003E-5,47,53,78,908630,162546,25754,31196,15648,17445,16560,4244,Tag0,unknown
1499247592981,0,-111,-2.43896484375E-5,47,53,78,908630,162546,25754,31196,15648,17445,16560,4244,Tag0,unknown
1499247592981,0,-100,-2.197265625E-5,47,53,78,908630,162546,25754,31196,15648,17445,16560,4244,Tag0,unknown
1499247592981,0,123,2.70263671875E-5,47,53,78,908630,162546,25754,31196,15648,17445,16560,4244,Tag0,unknown
1499247592982,0,108,2.3730468750000002E-5,47,53,78,908630,162546,25754,31196,15648,17445,16560,4244,Tag0,unknown
1499247593254,0,98,2.1533203125E-5,47,53,78,908630,162546,25754,31196,15648,17445,16560,4244,Tag0,unknown
1499247593255,0,105,2.30712890625E-5,47,53,78,908630,162546,25754,31196,15648,17445,16560,4244,Tag0,unknown
1499247593255,0,-110,-2.4169921875E-5,47,53,78,908630,162546,25754,31196,15648,17445,16560,4244,Tag0,unknown
1499247593255,0,-75,-1.64794921875E-5,47,53,78,908630,162546,25754,31196,15648,17445,16560,4244,Tag0,unknown
1499247593256,0,-59,-1.29638671875E-5,47,53,78,908630,162546,25754,31196,15648,17445,16560,4244,Tag0,unknown
1499247593256,0,-63,-1.38427734375E-5,47,53,78,908630,162546,25754,31196,15648,17445,16560,4244,Tag0,unknown
1499247593256,0,-104,-2.28515625E-5,47,53,78,908630,162546,25754,31196,15648,17445,16560,4244,Tag0,unknown
1499247593257,0,114,2.5048828125000003E-5,47,53,78,908630,162546,25754,31196,15648,17445,16560,4244,Tag0,unknown
1499247593257,0,99,2.1752929687500003E-5,47,53,78,908630,162546,25754,31196,15648,17445,16560,4244,Tag0,unknown
1499247593257,0,124,2.724609375E-5,47,53,78,908630,162546,25754,31196,15648,17445,16560,4244,Tag0,unknown
1499247593257,0,-70,-1.5380859375E-5,47,53,78,908630,162546,25754,31196,15648,17445,16560,4244,Tag0,unknown
1499247593258,0,-32,-7.03125E-6,47,53,78,908630,162546,25754,31196,15648,17445,16560,4244,Tag0,unknown
1499247593258,0,-56,-1.23046875E-5,47,53,78,908630,162546,25754,31196,15648,17445,16560,4244,Tag0,unknown
1499247593258,0,-101,-2.2192382812500002E-5,47,53,78,908630,162546,25754,31196,15648,17445,16560,4244,Tag0,unknown
1499247593258,0,118,2.5927734375E-5,47,53,78,908630,162546,25754,31196,15648,17445,16560,4244,Tag0,unknown
1499247593258,0,88,1.93359375E-5,47,53,78,908630,162546,25754,31196,15648,17445,16560,4244,Tag0,unknown
1499247593259,0,97,2.13134765625E-5,47,53,78,908630,162546,25754,31196,15648,17445,16560,4244,Tag0,unknown
1499247593259,0,-121,-2.6586914062500003E-5,47,53,78,908630,162546,25754,31196,15648,17445,16560,4244,Tag0,unknown
1499247593259,0,-96,-2.109375E-5,47,53,78,908630,162546,25754,31196,15648,17445,16560,4244,Tag0,unknown
1499247593260,0,-95,-2.08740234375E-5,47,53,78,908630,162546,25754,31196,15648,17445,16560,4244,Tag0,unknown
1499247593260,0,-111,-2.43896484375E-5,47,53,78,908630,162546,25754,31196,15648,17445,16560,4244,Tag0,unknown
1499247593260,0,104,2.28515625E-5,47,53,78,908630,162546,25754,31196,15648,17445,16560,4244,Tag0,unknown
1499247593260,0,103,2.26318359375E-5,47,53,78,908630,162546,25754,31196,15648,17445,16560,4244,Tag0,unknown
1499247593261,0,106,2.3291015625000003E-5,47,53,78,908630,162546,25754,31196,15648,17445,16560,4244,Tag0,unknown
1499247593261,0,84,1.8457031250000004E-5,47,53,78,908630,162546,25754,31196,15648,17445,16560,4244,Tag0,unknown
1499247593261,0,73,1.6040039062500002E-5,47,53,78,908630,162546,25754,31196,15648,17445,16560,4244,Tag0,unknown
1499247593261,0,88,1.93359375E-5,47,53,78,908630,162546,25754,31196,15648,17445,16560,4244,Tag0,unknown
1499247593262,0,119,2.6147460937500004E-5,47,53,78,908630,162546,25754,31196,15648,17445,16560,4244,Tag0,unknown
1499247593262,0,-117,-2.5708007812499998E-5,47,53,78,908630,162546,25754,31196,15648,17445,16560,4244,Tag0,unknown
1499247593262,0,-119,-2.6147460937500004E-5,47,53,78,908630,162546,25754,31196,15648,17445,16560,4244,Tag0,unknown
1499247593263,0,105,2.30712890625E-5,47,53,78,908630,162546,25754,31196,15648,17445,16560,4244,Tag0,unknown
1499247593263,0,76,1.669921875E-5,47,53,78,908630,162546,25754,31196,15648,17445,16560,4244,Tag0,unknown
1499247593263,0,96,2.109375E-5,47,53,78,908630,162546,25754,31196,15648,17445,16560,4244,Tag0,unknown
1499247593264,0,112,2.4609375E-5,47,53,78,908630,162546,25754,31196,15648,17445,16560,4244,Tag0,unknown
1499247593264,0,-124,-2.724609375E-5,47,53,78,908630,162546,25754,31196,15648,17445,16560,4244,Tag0,unknown
1499247593264,0,-124,-2.724609375E-5,47,53,78,908630,162546,25754,31196,15648,17445,16560,4244,Tag0,unknown
1499247593264,0,116,2.548828125E-5,47,53,78,908630,162546,25754,31196,15648,17445,16560,4244,Tag0,unknown
1499247593265,0,92,2.021484375E-5,47,53,78,908630,162546,25754,31196,15648,17445,16560,4244,Tag0,unknown
1499247593265,0,81,1.77978515625E-5,47,53,78,908630,162546,25754,31196,15648,17445,16560,4244,Tag0,unknown
1499247593266,0,55,1.20849609375E-5,47,53,78,908630,162546,25754,31196,15648,17445,16560,4244,Tag0,unknown
1499247593267,0,64,1.40625E-5,47,53,78,908630,162546,25754,31196,15648,17445,16560,4244,Tag0,unknown
1499247593267,0,103,2.26318359375E-5,47,53,78,908630,162546,25754,31196,15648,17445,16560,4244,Tag0,unknown
1499247593267,0,101,2.2192382812500002E-5,47,53,78,908630,162546,25754,31196,15648,17445,16560,4244,Tag0,unknown
1499247593268,0,72,1.58203125E-5,47,53,78,908630,162546,25754,31196,15648,17445,16560,4244,Tag0,unknown
1499247593268,0,67,1.4721679687500002E-5,47,53,78,908630,162546,25754,31196,15648,17445,16560,4244,Tag0,unknown
1499247593269,0,84,1.8457031250000004E-5,47,53,78,908630,162546,25754,31196,15648,17445,16560,4244,Tag0,unknown
1499247593269,0,109,2.39501953125E-5,47,53,78,908630,162546,25754,31196,15648,17445,16560,4244,Tag0,unknown
1499247593269,0,-127,-2.79052734375E-5,47,53,78,908630,162546,25754,31196,15648,17445,16560,4244,Tag0,unknown
1499247593270,0,122,2.6806640625E-5,47,53,78,908630,162546,25754,31196,15648,17445,16560,4244,Tag0,unknown
1499247593270,0,115,2.52685546875E-5,47,53,78,908630,162546,25754,31196,15648,17445,16560,4244,Tag0,unknown
1499247593271,0,120,2.63671875E-5,47,53,78,908630,162546,25754,31196,15648,17445,16560,4244,Tag0,unknown
1499247593271,0,-110,-2.4169921875E-5,47,53,78,908630,162546,25754,31196,15648,17445,16560,4244,Tag0,unknown
1499247593272,0,-108,-2.3730468750000002E-5,47,53,78,908630,162546,25754,31196,15648,17445,16560,4244,Tag0,unknown
1499247593272,0,125,2.74658203125E-5,47,53,78,908630,162546,25754,31196,15648,17445,16560,4244,Tag0,unknown
1499247593272,0,118,2.5927734375E-5,47,53,78,908630,162546,25754,31196,15648,17445,16560,4244,Tag0,unknown
1499247593273,0,-107,-2.35107421875E-5,47,53,78,908630,162546,25754,31196,15648,17445,16560,4244,Tag0,unknown
1499247593273,0,-73,-1.6040039062500002E-5,47,53,78,908630,162546,25754,31196,15648,17445,16560,4244,Tag0,unknown
1499247593273,0,-63,-1.38427734375E-5,47,53,78,908630,162546,25754,31196,15648,17445,16560,4244,Tag0,unknown
1499247593274,0,-85,-1.86767578125E-5,47,53,78,908630,162546,25754,31196,15648,17445,16560,4244,Tag0,unknown
1499247593274,0,-103,-2.26318359375E-5,47,53,78,908630,162546,25754,31196,15648,17445,16560,4244,Tag0,unknown
1499247593274,0,-117,-2.5708007812499998E-5,47,53,78,908630,162546,25754,31196,15648,17445,16560,4244,Tag0,unknown
1499247593275,0,122,2.6806640625E-5,47,53,78,908630,162546,25754,31196,15648,17445,16560,4244,Tag0,unknown
1499247593275,0,-111,-2.43896484375E-5,47,53,78,908630,162546,25754,31196,15648,17445,16560,4244,Tag0,unknown
1499247593275,0,-73,-1.6040039062500002E-5,47,53,78,908630,162546,25754,31196,15648,17445,16560,4244,Tag0,unknown
1499247593276,0,-46,-1.0107421875E-5,47,53,78,908630,162546,25754,31196,15648,17445,16560,4244,Tag0,unknown
1499247593276,0,-31,-6.8115234375E-6,47,53,78,908630,162546,25754,31196,15648,17445,16560,4244,Tag0,unknown
1499247593276,0,-6,-1.318359375E-6,47,53,78,908630,162546,25754,31196,15648,17445,16560,4244,Tag0,unknown
1499247593277,0,294,6.4599609375E-5,47,53,78,908630,162546,25754,31196,15648,17445,16560,4244,Tag0,unknown
1499247593277,0,323,7.09716796875E-5,47,53,78,908630,162546,25754,31196,15648,17445,16560,4244,Tag0,unknown
1499247593277,0,340,7.470703125E-5,47,53,78,908630,162546,25754,31196,15648,17445,16560,4244,Tag0,unknown
1499247593290,0,344,7.558593750000001E-5,27,43,78,2683863,652833,16762050,93711,16776289,16755899,16746787,14393,Tag0,unknown
1499247593290,0,362,7.954101562500001E-5,27,43,78,2683863,652833,16762050,93711,16776289,16755899,16746787,14393,Tag0,unknown
1499247593291,0,151,3.31787109375E-5,27,43,78,2683863,652833,16762050,93711,16776289,16755899,16746787,14393,Tag0,unknown
1499247593291,0,199,4.3725585937499995E-5,27,43,78,2683863,652833,16762050,93711,16776289,16755899,16746787,14393,Tag0,unknown
1499247593291,0,232,5.09765625E-5,27,43,78,2683863,652833,16762050,93711,16776289,16755899,16746787,14393,Tag0,unknown
1499247593291,0,544,1.1953125000000001E-4,27,43,78,2683863,652833,16762050,93711,16776289,16755899,16746787,14393,Tag0,unknown
1499247593291,0,611,1.3425292968749999E-4,27,43,78,2683863,652833,16762050,93711,16776289,16755899,16746787,14393,Tag0,unknown
1499247593292,0,400,8.7890625E-5,27,43,78,2683863,652833,16762050,93711,16776289,16755899,16746787,14393,Tag0,unknown
1499247593292,0,406,8.920898437500001E-5,27,43,78,2683863,652833,16762050,93711,16776289,16755899,16746787,14393,Tag0,unknown
1499247593292,0,420,9.228515625E-5,27,43,78,2683863,652833,16762050,93711,16776289,16755899,16746787,14393,Tag0,unknown
1499247593292,0,435,9.55810546875E-5,27,43,78,2683863,652833,16762050,93711,16776289,16755899,16746787,14393,Tag0,unknown
1499247593292,0,428,9.404296875E-5,27,43,78,2683863,652833,16762050,93711,16776289,16755899,16746787,14393,Tag0,unknown
1499247593293,0,627,1.377685546875E-4,27,43,78,2683863,652833,16762050,93711,16776289,16755899,16746787,14393,Tag0,unknown
1499247593293,0,568,1.248046875E-4,27,43,78,2683863,652833,16762050,93711,16776289,16755899,16746787,14393,Tag0,unknown
1499247593293,0,561,1.232666015625E-4,27,43,78,2683863,652833,16762050,93711,16776289,16755899,16746787,14393,Tag0,unknown
1499247593293,0,585,1.285400390625E-4,27,43,78,2683863,652833,16762050,93711,16776289,16755899,16746787,14393,Tag0,unknown
1499247593294,0,599,1.316162109375E-4,27,43,78,2683863,652833,16762050,93711,16776289,16755899,16746787,14393,Tag0,unknown
1499247593294,0,560,1.23046875E-4,27,43,78,2683863,652833,16762050,93711,16776289,16755899,16746787,14393,Tag0,unknown
1499247593294,0,529,1.162353515625E-4,27,43,78,2683863,652833,16762050,93711,16776289,16755899,16746787,14393,Tag0,unknown
1499247593294,0,531,1.1667480468750001E-4,27,43,78,2683863,652833,16762050,93711,16776289,16755899,16746787,14393,Tag0,unknown
1499247593294,0,531,1.1667480468750001E-4,27,43,78,2683863,652833,16762050,93711,16776289,16755899,16746787,14393,Tag0,unknown
1499247593294,0,252,5.537109375E-5,27,43,78,2683863,652833,16762050,93711,16776289,16755899,16746787,14393,Tag0,unknown
1499247593294,0,516,1.1337890625000001E-4,27,43,78,2683863,652833,16762050,93711,16776289,16755899,16746787,14393,Tag0,unknown
1499247593295,0,519,1.140380859375E-4,27,43,78,2683863,652833,16762050,93711,16776289,16755899,16746787,14393,Tag0,unknown
1499247593295,0,231,5.07568359375E-5,27,43,78,2683863,652833,16762050,93711,16776289,16755899,16746787,14393,Tag0,unknown
1499247593295,0,167,3.6694335937500004E-5,27,43,78,2683863,652833,16762050,93711,16776289,16755899,16746787,14393,Tag0,unknown
1499247593295,0,331,7.272949218750001E-5,27,43,78,2683863,652833,16762050,93711,16776289,16755899,16746787,14393,Tag0,unknown
1499247593295,0,272,5.9765625000000004E-5,27,43,78,2683863,652833,16762050,93711,16776289,16755899,16746787,14393,Tag0,unknown
1499247593295,0,260,5.712890625E-5,27,43,78,2683863,652833,16762050,93711,16776289,16755899,16746787,14393,Tag0,unknown
1499247593295,0,256,5.625E-5,27,43,78,2683863,652833,16762050,93711,16776289,16755899,16746787,14393,Tag0,unknown
1499247593296,0,-14,-3.076171875E-6,27,43,78,2683863,652833,16762050,93711,16776289,16755899,16746787,14393,Tag0,unknown
1499247593296,0,-42,-9.228515625000002E-6,27,43,78,2683863,652833,16762050,93711,16776289,16755899,16746787,14393,Tag0,unknown
1499247593296,0,-105,-2.30712890625E-5,27,43,78,2683863,652833,16762050,93711,16776289,16755899,16746787,14393,Tag0,unknown
1499247593296,0,90,1.9775390625E-5,27,43,78,2683863,652833,16762050,93711,16776289,16755899,16746787,14393,Tag0,unknown
1499247593296,0,43,9.448242187500001E-6,27,43,78,2683863,652833,16762050,93711,16776289,16755899,16746787,14393,Tag0,unknown
1499247593296,0,42,9.228515625000002E-6,27,43,78,2683863,652833,16762050,93711,16776289,16755899,16746787,14393,Tag0,unknown
1499247593296,0,76,1.669921875E-5,27,43,78,2683863,652833,16762050,93711,16776289,16755899,16746787,14393,Tag0,unknown
1499247593296,0,98,2.1533203125E-5,27,43,78,2683863,652833,16762050,93711,16776289,16755899,16746787,14393,Tag0,unknown
1499247593297,0,75,1.64794921875E-5,27,43,78,2683863,652833,16762050,93711,16776289,16755899,16746787,14393,Tag0,unknown
1499247593297,0,4,8.7890625E-7,27,43,78,2683863,652833,16762050,93711,16776289,16755899,16746787,14393,Tag0,unknown
1499247593297,0,-324,-7.119140625E-5,27,43,78,2683863,652833,16762050,93711,16776289,16755899,16746787,14393,Tag0,unknown
1499247593297,0,-350,-7.6904296875E-5,27,43,78,2683863,652833,16762050,93711,16776289,16755899,16746787,14393,Tag0,unknown
1499247593297,0,-349,-7.668457031250001E-5,27,43,78,2683863,652833,16762050,93711,16776289,16755899,16746787,14393,Tag0,unknown
1499247593298,0,-378,-8.3056640625E-5,27,43,78,2683863,652833,16762050,93711,16776289,16755899,16746787,14393,Tag0,unknown
1499247593298,0,-137,-3.0102539062499998E-5,27,43,78,2683863,652833,16762050,93711,16776289,16755899,16746787,14393,Tag0,unknown
1499247593298,0,-145,-3.18603515625E-5,27,43,78,2683863,652833,16762050,93711,16776289,16755899,16746787,14393,Tag0,unknown
1499247593298,0,-166,-3.6474609375E-5,27,43,78,2683863,652833,16762050,93711,16776289,16755899,16746787,14393,Tag0,unknown
1499247593298,0,-195,-4.28466796875E-5,27,43,78,2683863,652833,16762050,93711,16776289,16755899,16746787,14393,Tag0,unknown
1499247593298,0,-198,-4.3505859375000006E-5,27,43,78,2683863,652833,16762050,93711,16776289,16755899,16746787,14393,Tag0,unknown
1499247593299,0,-202,-4.4384765625000004E-5,27,43,78,2683863,652833,16762050,93711,16776289,16755899,16746787,14393,Tag0,unknown
1499247593299,0,-218,-4.7900390625E-5,27,43,78,2683863,652833,16762050,93711,16776289,16755899,16746787,14393,Tag0,unknown
1499247593299,0,-209,-4.59228515625E-5,27,43,78,2683863,652833,16762050,93711,16776289,16755899,16746787,14393,Tag0,unknown
1499247593299,0,-199,-4.3725585937499995E-5,27,43,78,2683863,652833,16762050,93711,16776289,16755899,16746787,14393,Tag0,unknown
1499247593299,0,-229,-5.03173828125E-5,27,43,78,2683863,652833,16762050,93711,16776289,16755899,16746787,14393,Tag0,unknown
1499247593299,0,-514,-1.12939453125E-4,27,43,78,2683863,652833,16762050,93711,16776289,16755899,16746787,14393,Tag0,unknown
1499247593299,0,-567,-1.245849609375E-4,27,43,78,2683863,652833,16762050,93711,16776289,16755899,16746787,14393,Tag0,unknown
1499247593299,0,-602,-1.3227539062500001E-4,27,43,78,2683863,652833,16762050,93711,16776289,16755899,16746787,14393,Tag0,unknown
1499247593300,0,-599,-1.316162109375E-4,27,43,78,2683863,652833,16762050,93711,16776289,16755899,16746787,14393,Tag0,unknown
1499247593300,0,-580,-1.2744140625E-4,27,43,78,2683863,652833,16762050,93711,16776289,16755899,16746787,14393,Tag0,unknown
1499247593300,0,-571,-1.254638671875E-4,27,43,78,2683863,652833,16762050,93711,16776289,16755899,16746787,14393,Tag0,unknown
1499247593300,0,-586,-1.28759765625E-4,27,43,78,2683863,652833,16762050,93711,16776289,16755899,16746787,14393,Tag0,unknown
1499247593300,0,-579,-1.272216796875E-4,27,43,78,2683863,652833,16762050,93711,16776289,16755899,16746787,14393,Tag0,unknown
1499247593300,0,-595,-1.307373046875E-4,27,43,78,2683863,652833,16762050,93711,16776289,16755899,16746787,14393,Tag0,unknown
1499247593301,0,-389,-8.54736328125E-5,27,43,78,2683863,652833,16762050,93711,16776289,16755899,16746787,14393,Tag0,unknown
1499247593301,0,-411,-9.03076171875E-5,27,43,78,2683863,652833,16762050,93711,16776289,16755899,16746787,14393,Tag0,unknown
1499247593301,0,-398,-8.745117187499999E-5,27,43,78,2683863,652833,16762050,93711,16776289,16755899,16746787,14393,Tag0,unknown
1499247593301,0,-631,-1.386474609375E-4,27,43,78,2683863,652833,16762050,93711,16776289,16755899,16746787,14393,Tag0,unknown
1499247593301,0,-618,-1.35791015625E-4,27,43,78,2683863,652833,16762050,93711,16776289,16755899,16746787,14393,Tag0,unknown
1499247593302,0,-410,-9.0087890625E-5,27,43,78,2683863,652833,16762050,93711,16776289,16755899,16746787,14393,Tag0,unknown
1499247593302,0,-465,-1.021728515625E-4,27,43,78,2683863,652833,16762050,93711,16776289,16755899,16746787,14393,Tag0,unknown
1499247593302,0,-478,-1.0502929687499999E-4,27,43,78,2683863,652833,16762050,93711,16776289,16755899,16746787,14393,Tag0,unknown
1499247593302,0,-474,-1.0415039062500001E-4,27,43,78,2683863,652833,16762050,93711,16776289,16755899,16746787,14393,Tag0,unknown
1499247593303,0,-435,-9.55810546875E-5,27,43,78,2683863,652833,16762050,93711,16776289,16755899,16746787,14393,Tag0,unknown
1499247593303,0,-618,-1.35791015625E-4,27,43,78,2683863,652833,16762050,93711,16776289,16755899,16746787,14393,Tag0,unknown
1499247593303,0,-586,-1.28759765625E-4,27,43,78,2683863,652833,16762050,93711,16776289,16755899,16746787,14393,Tag0,unknown
1499247593303,0,-602,-1.3227539062500001E-4,27,43,78,2683863,652833,16762050,93711,16776289,16755899,16746787,14393,Tag0,unknown
1499247593303,0,-636,-1.3974609375E-4,27,43,78,2683863,652833,16762050,93711,16776289,16755899,16746787,14393,Tag0,unknown
1499247593304,0,-390,-8.5693359375E-5,27,43,78,2683863,652833,16762050,93711,16776289,16755899,16746787,14393,Tag0,unknown
1499247593304,0,-625,-1.373291015625E-4,27,43,78,2683863,652833,16762050,93711,16776289,16755899,16746787,14393,Tag0,unknown
1499247593304,0,-600,-1.318359375E-4,27,43,78,2683863,652833,16762050,93711,16776289,16755899,16746787,14393,Tag0,unknown
1499247593304,0,-586,-1.28759765625E-4,27,43,78,2683863,652833,16762050,93711,16776289,16755899,16746787,14393,Tag0,unknown
1499247593304,0,-566,-1.2436523437500002E-4,27,43,78,2683863,652833,16762050,93711,16776289,16755899,16746787,14393,Tag0,unknown
1499247593305,0,-584,-1.2832031250000002E-4,27,43,78,2683863,652833,16762050,93711,16776289,16755899,16746787,14393,Tag0,unknown
1499247593310,0,-637,-1.399658203125E-4,27,43,78,2683863,652833,16762050,93711,16776289,16755899,16746787,14393,Tag0,unknown
1499247593310,0,-410,-9.0087890625E-5,27,43,78,2683863,652833,16762050,93711,16776289,16755899,16746787,14393,Tag0,unknown
1499247593311,0,-386,-8.481445312500001E-5,27,43,78,2683863,652833,16762050,93711,16776289,16755899,16746787,14393,Tag0,unknown
1499247593311,0,-604,-1.3271484375E-4,27,43,78,2683863,652833,16762050,93711,16776289,16755899,16746787,14393,Tag0,unknown
1499247593311,0,-583,-1.281005859375E-4,27,43,78,2683863,652833,16762050,93711,16776289,16755899,16746787,14393,Tag0,unknown
1499247593311,0,-594,-1.3051757812500002E-4,27,43,78,2683863,652833,16762050,93711,16776289,16755899,16746787,14393,Tag0,unknown
1499247593311,0,-590,-1.29638671875E-4,27,43,78,2683863,652833,16762050,93711,16776289,16755899,16746787,14393,Tag0,unknown
1499247593311,0,-561,-1.232666015625E-4,27,43,78,2683863,652833,16762050,93711,16776289,16755899,16746787,14393,Tag0,unknown
1499247593311,0,-530,-1.16455078125E-4,27,43,78,2683863,652833,16762050,93711,16776289,16755899,16746787,14393,Tag0,unknown
1499247593312,0,-243,-5.33935546875E-5,27,43,78,2683863,652833,16762050,93711,16776289,16755899,16746787,14393,Tag0,unknown
1499247593312,0,-205,-4.50439453125E-5,27,43,78,2683863,652833,16762050,93711,16776289,16755899,16746787,14393,Tag0,unknown
1499247593312,0,-197,-4.32861328125E-5,27,43,78,2683863,652833,16762050,93711,16776289,16755899,16746787,14393,Tag0,unknown
1499247593312,0,-220,-4.833984375E-5,27,43,78,2683863,652833,16762050,93711,16776289,16755899,16746787,14393,Tag0,unknown
1499247593313,0,-221,-4.85595703125E-5,27,43,78,2683863,652833,16762050,93711,16776289,16755899,16746787,14393,Tag0,unknown
1499247593313,0,-189,-4.15283203125E-5,27,43,78,2683863,652833,16762050,93711,16776289,16755899,16746787,14393,Tag0,unknown
1499247593313,0,-171,-3.75732421875E-5,27,43,78,2683863,652833,16762050,93711,16776289,16755899,16746787,14393,Tag0,unknown
1499247593313,0,-139,-3.0541992187500004E-5,27,43,78,2683863,652833,16762050,93711,16776289,16755899,16746787,14393,Tag0,unknown
1499247593313,0,-130,-2.8564453125E-5,27,43,78,2683863,652833,16762050,93711,16776289,16755899,16746787,14393,Tag0,unknown
1499247593314,0,-163,-3.5815429687500006E-5,27,43,78,2683863,652833,16762050,93711,16776289,16755899,16746787,14393,Tag0,unknown
1499247593314,0,-166,-3.6474609375E-5,27,43,78,2683863,652833,16762050,93711,16776289,16755899,16746787,14393,Tag0,unknown
1499247593314,0,-129,-2.8344726562500002E-5,27,43,78,2683863,652833,16762050,93711,16776289,16755899,16746787,14393,Tag0,unknown
1499247593314,0,-342,-7.5146484375E-5,27,43,78,2683863,652833,16762050,93711,16776289,16755899,16746787,14393,Tag0,unknown
1499247593314,0,-322,-7.0751953125E-5,27,43,78,2683863,652833,16762050,93711,16776289,16755899,16746787,14393,Tag0,unknown
1499247593314,0,-324,-7.119140625E-5,27,43,78,2683863,652833,16762050,93711,16776289,16755899,16746787,14393,Tag0,unknown
1499247593314,0,-332,-7.294921875E-5,27,43,78,2683863,652833,16762050,93711,16776289,16755899,16746787,14393,Tag0,unknown
1499247593315,0,-323,-7.09716796875E-5,27,43,78,2683863,652833,16762050,93711,16776289,16755899,16746787,14393,Tag0,unknown
1499247593315,0,2,4.39453125E-7,27,43,78,2683863,652833,16762050,93711,16776289,16755899,16746787,14393,Tag0,unknown
1499247593319,0,45,9.8876953125E-6,27,43,79,2683863,652833,16762050,93711,16776289,16755899,16746787,14393,Tag0,unknown
1499247593320,0,17,3.7353515625000003E-6,27,43,79,2683863,652833,16762050,93711,16776289,16755899,16746787,14393,Tag0,unknown
1499247593320,0,-283,-6.218261718750001E-5,27,43,79,2683863,652833,16762050,93711,16776289,16755899,16746787,14393,Tag0,unknown
1499247593320,0,-305,-6.70166015625E-5,27,43,79,2683863,652833,16762050,93711,16776289,16755899,16746787,14393,Tag0,unknown
1499247593320,0,-300,-6.591796875E-5,27,43,79,2683863,652833,16762050,93711,16776289,16755899,16746787,14393,Tag0,unknown
1499247593321,0,-281,-6.17431640625E-5,27,43,79,2683863,652833,16762050,93711,16776289,16755899,16746787,14393,Tag0,unknown
1499247593321,0,-259,-5.69091796875E-5,27,43,79,2683863,652833,16762050,93711,16776289,16755899,16746787,14393,Tag0,unknown
1499247593321,0,-267,-5.86669921875E-5,27,43,79,2683863,652833,16762050,93711,16776289,16755899,16746787,14393,Tag0,unknown
1499247593322,0,-279,-6.13037109375E-5,27,43,79,2683863,652833,16762050,93711,16776289,16755899,16746787,14393,Tag0,unknown
1499247593322,0,-282,-6.1962890625E-5,27,43,79,2683863,652833,16762050,93711,16776289,16755899,16746787,14393,Tag0,unknown
1499247593322,0,-289,-6.35009765625E-5,27,43,79,2683863,652833,16762050,93711,16776289,16755899,16746787,14393,Tag0,unknown
1499247593322,0,-292,-6.416015625000001E-5,27,43,79,2683863,652833,16762050,93711,16776289,16755899,16746787,14393,Tag0,unknown
1499247593322,0,-298,-6.5478515625E-5,27,43,79,2683863,652833,16762050,93711,16776289,16755899,16746787,14393,Tag0,unknown
1499247593322,0,-293,-6.43798828125E-5,27,43,79,2683863,652833,16762050,93711,16776289,16755899,16746787,14393,Tag0,unknown
1499247593322,0,-268,-5.8886718750000006E-5,27,43,79,2683863,652833,16762050,93711,16776289,16755899,16746787,14393,Tag0,unknown
1499247593323,0,33,7.2509765625E-6,27,43,79,2683863,652833,16762050,93711,16776289,16755899,16746787,14393,Tag0,unknown
1499247593323,0,57,1.2524414062500001E-5,27,43,79,2683863,652833,16762050,93711,16776289,16755899,16746787,14393,Tag0,unknown
1499247593323,0,50,1.0986328125E-5,27,43,79,2683863,652833,16762050,93711,16776289,16755899,16746787,14393,Tag0,unknown
1499247593323,0,38,8.349609375E-6,27,43,79,2683863,652833,16762050,93711,16776289,16755899,16746787,14393,Tag0,unknown
1499247593323,0,61,1.34033203125E-5,27,43,79,2683863,652833,16762050,93711,16776289,16755899,16746787,14393,Tag0,unknown
1499247593324,0,121,2.6586914062500003E-5,27,43,79,2683863,652833,16762050,93711,16776289,16755899,16746787,14393,Tag0,unknown
1499247593877,0,-125,-2.74658203125E-5,27,43,79,2683863,652833,16762050,93711,16776289,16755899,16746787,14393,Tag0,unknown
1499247593878,0,92,2.021484375E-5,27,43,79,2683863,652833,16762050,93711,16776289,16755899,16746787,14393,Tag0,unknown
1499247593878,0,77,1.69189453125E-5,27,43,79,2683863,652833,16762050,93711,16776289,16755899,16746787,14393,Tag0,unknown
1499247593879,0,100,2.197265625E-5,27,43,79,2683863,652833,16762050,93711,16776289,16755899,16746787,14393,Tag0,unknown
1499247593879,0,104,2.28515625E-5,27,43,79,2683863,652833,16762050,93711,16776289,16755899,16746787,14393,Tag0,unknown
1499247593879,0,82,1.8017578124999998E-5,27,43,79,2683863,652833,16762050,93711,16776289,16755899,16746787,14393,Tag0,unknown
1499247593880,0,52,1.142578125E-5,27,43,79,2683863,652833,16762050,93711,16776289,16755899,16746787,14393,Tag0,unknown
1499247593880,0,49,1.07666015625E-5,27,43,79,2683863,652833,16762050,93711,16776289,16755899,16746787,14393,Tag0,unknown
1499247593880,0,76,1.669921875E-5,27,43,79,2683863,652833,16762050,93711,16776289,16755899,16746787,14393,Tag0,unknown
1499247593881,0,116,2.548828125E-5,27,43,79,2683863,652833,16762050,93711,16776289,16755899,16746787,14393,Tag0,unknown
1499247593881,0,-104,-2.28515625E-5,27,43,79,2683863,652833,16762050,93711,16776289,16755899,16746787,14393,Tag0,unknown
1499247593881,0,-103,-2.26318359375E-5,27,43,79,2683863,652833,16762050,93711,16776289,16755899,16746787,14393,Tag0,unknown
1499247593881,0,-120,-2.63671875E-5,27,43,79,2683863,652833,16762050,93711,16776289,16755899,16746787,14393,Tag0,unknown
1499247593882,0,-118,-2.5927734375E-5,27,43,79,2683863,652833,16762050,93711,16776289,16755899,16746787,14393,Tag0,unknown
1499247593882,0,-115,-2.52685546875E-5,27,43,79,2683863,652833,16762050,93711,16776289,16755899,16746787,14393,Tag0,unknown
1499247593882,0,-128,-2.8125E-5,27,43,79,2683863,652833,16762050,93711,16776289,16755899,16746787,14393,Tag0,unknown
1499247593883,0,103,2.26318359375E-5,27,43,79,2683863,652833,16762050,93711,16776289,16755899,16746787,14393,Tag0,unknown
1499247593883,0,109,2.39501953125E-5,27,43,79,2683863,652833,16762050,93711,16776289,16755899,16746787,14393,Tag0,unknown
1499247593883,0,-122,-2.6806640625E-5,27,43,79,2683863,652833,16762050,93711,16776289,16755899,16746787,14393,Tag0,unknown
1499247593884,0,121,2.6586914062500003E-5,27,43,79,2683863,652833,16762050,93711,16776289,16755899,16746787,14393,Tag0,unknown
1499247593884,0,106,2.3291015625000003E-5,27,43,79,2683863,652833,16762050,93711,16776289,16755899,16746787,14393,Tag0,unknown
1499247593884,0,91,1.99951171875E-5,27,43,79,2683863,652833,16762050,93711,16776289,16755899,16746787,14393,Tag0,unknown
1499247593884,0,81,1.77978515625E-5,27,43,79,2683863,652833,16762050,93711,16776289,16755899,16746787,14393,Tag0,unknown
1499247593885,0,-120,-2.63671875E-5,27,43,79,2683863,652833,16762050,93711,16776289,16755899,16746787,14393,Tag0,unknown
1499247593885,0,-7,-1.5380859375E-6,27,43,79,2683863,652833,16762050,93711,16776289,16755899,16746787,14393,Tag0,unknown
1499247593886,0,307,6.74560546875E-5,27,43,79,2683863,652833,16762050,93711,16776289,16755899,16746787,14393,Tag0,unknown
1499247593886,0,278,6.108398437500001E-5,27,43,79,2683863,652833,16762050,93711,16776289,16755899,16746787,14393,Tag0,unknown
1499247593886,0,-37,-8.1298828125E-6,27,43,79,2683863,652833,16762050,93711,16776289,16755899,16746787,14393,Tag0,unknown
1499247593887,0,-63,-1.38427734375E-5,27,43,79,2683863,652833,16762050,93711,16776289,16755899,16746787,14393,Tag0,unknown
1499247593887,0,-85,-1.86767578125E-5,27,43,79,2683863,652833,16762050,93711,16776289,16755899,16746787,14393,Tag0,unknown
1499247593887,0,-72,-1.58203125E-5,27,43,79,2683863,652833,16762050,93711,16776289,16755899,16746787,14393,Tag0,unknown
1499247593888,0,-38,-8.349609375E-6,27,43,79,2683863,652833,16762050,93711,16776289,16755899,16746787,14393,Tag0,unknown
1499247593888,0,-31,-6.8115234375E-6,27,43,79,2683863,652833,16762050,93711,16776289,16755899,16746787,14393,Tag0,unknown
1499247593888,0,-36,-7.91015625E-6,27,43,79,2683863,652833,16762050,93711,16776289,16755899,16746787,14393,Tag0,unknown
1499247593889,0,262,5.7568359375E-5,27,43,79,2683863,652833,16762050,93711,16776289,16755899,16746787,14393,Tag0,unknown
1499247593889,0,299,6.56982421875E-5,27,43,79,2683863,652833,16762050,93711,16776289,16755899,16746787,14393,Tag0,unknown
1499247593889,0,336,7.382812500000001E-5,27,43,79,2683863,652833,16762050,93711,16776289,16755899,16746787,14393,Tag0,unknown
1499247593890,0,341,7.492675781250002E-5,27,43,79,2683863,652833,16762050,93711,16776289,16755899,16746787,14393,Tag0,unknown
1499247593890,0,340,7.470703125E-5,27,43,79,2683863,652833,16762050,93711,16776289,16755899,16746787,14393,Tag0,unknown
1499247593890,0,369,8.10791015625E-5,27,43,79,2683863,652833,16762050,93711,16776289,16755899,16746787,14393,Tag0,unknown
1499247593891,0,178,3.9111328125E-5,27,43,79,2683863,652833,16762050,93711,16776289,16755899,16746787,14393,Tag0,unknown
1499247593891,0,236,5.185546875E-5,27,43,79,2683863,652833,16762050,93711,16776289,16755899,16746787,14393,Tag0,unknown
1499247593891,0,532,1.1689453125E-4,27,43,79,2683863,652833,16762050,93711,16776289,16755899,16746787,14393,Tag0,unknown
1499247593891,0,545,1.197509765625E-4,27,43,79,2683863,652833,16762050,93711,16776289,16755899,16746787,14393,Tag0,unknown
1499247593892,0,553,1.215087890625E-4,27,43,79,2683863,652833,16762050,93711,16776289,16755899,16746787,14393,Tag0,unknown
1499247593892,0,584,1.2832031250000002E-4,27,43,79,2683863,652833,16762050,93711,16776289,16755899,16746787,14393,Tag0,unknown
1499247593892,0,628,1.3798828125E-4,27,43,79,2683863,652833,16762050,93711,16776289,16755899,16746787,14393,Tag0,unknown
1499247593893,0,408,8.964843749999999E-5,27,43,79,2683863,652833,16762050,93711,16776289,16755899,16746787,14393,Tag0,unknown
1499247593893,0,437,9.602050781250001E-5,27,43,79,2683863,652833,16762050,93711,16776289,16755899,16746787,14393,Tag0,unknown
1499247593893,0,445,9.77783203125E-5,27,43,79,2683863,652833,16762050,93711,16776289,16755899,16746787,14393,Tag0,unknown
1499247593894,0,455,9.99755859375E-5,27,43,79,2683863,652833,16762050,93711,16776289,16755899,16746787,14393,Tag0,unknown
1499247593894,0,482,1.05908203125E-4,27,43,79,2683863,652833,16762050,93711,16776289,16755899,16746787,14393,Tag0,unknown
1499247593895,0,504,1.107421875E-4,27,43,79,2683863,652833,16762050,93711,16776289,16755899,16746787,14393,Tag0,unknown
1499247593895,0,480,1.0546875E-4,27,43,79,2683863,652833,16762050,93711,16776289,16755899,16746787,14393,Tag0,unknown
1499247593896,0,427,9.382324218750001E-5,27,43,79,2683863,652833,16762050,93711,16776289,16755899,16746787,14393,Tag0,unknown
1499247593896,0,624,1.37109375E-4,27,43,79,2683863,652833,16762050,93711,16776289,16755899,16746787,14393,Tag0,unknown
1499247593896,0,616,1.353515625E-4,27,43,79,2683863,652833,16762050,93711,16776289,16755899,16746787,14393,Tag0,unknown
1499247593897,0,620,1.3623046875E-4,27,43,79,2683863,652833,16762050,93711,16776289,16755899,16746787,14393,Tag0,unknown
1499247593897,0,566,1.2436523437500002E-4,27,43,79,2683863,652833,16762050,93711,16776289,16755899,16746787,14393,Tag0,unknown
1499247593897,0,218,4.7900390625E-5,27,43,79,2683863,652833,16762050,93711,16776289,16755899,16746787,14393,Tag0,unknown
1499247593898,0,144,3.1640625E-5,27,43,79,2683863,652833,16762050,93711,16776289,16755899,16746787,14393,Tag0,unknown
1499247593898,0,372,8.173828125E-5,27,43,79,2683863,652833,16762050,93711,16776289,16755899,16746787,14393,Tag0,unknown
1499247593898,0,375,8.23974609375E-5,27,43,79,2683863,652833,16762050,93711,16776289,16755899,16746787,14393,Tag0,unknown
1499247593899,0,378,8.3056640625E-5,27,43,79,2683863,652833,16762050,93711,16776289,16755899,16746787,14393,Tag0,unknown
1499247593899,0,321,7.053222656250001E-5,27,43,79,2683863,652833,16762050,93711,16776289,16755899,16746787,14393,Tag0,unknown
1499247593899,0,-20,-4.39453125E-6,27,43,79,2683863,652833,16762050,93711,16776289,16755899,16746787,14393,Tag0,unknown
1499247593899,0,-83,-1.82373046875E-5,27,43,79,2683863,652833,16762050,93711,16776289,16755899,16746787,14393,Tag0,unknown
1499247593900,0,-96,-2.109375E-5,27,43,79,2683863,652833,16762050,93711,16776289,16755899,16746787,14393,Tag0,unknown
1499247593900,0,-72,-1.58203125E-5,27,43,79,2683863,652833,16762050,93711,16776289,16755899,16746787,14393,Tag0,unknown
1499247593900,0,-56,-1.23046875E-5,27,43,79,2683863,652833,16762050,93711,16776289,16755899,16746787,14393,Tag0,unknown
1499247593901,0,-89,-1.95556640625E-5,27,43,79,2683863,652833,16762050,93711,16776289,16755899,16746787,14393,Tag0,unknown
1499247593901,0,109,2.39501953125E-5,27,43,79,2683863,652833,16762050,93711,16776289,16755899,16746787,14393,Tag0,unknown
1499247593901,0,64,1.40625E-5,27,43,79,2683863,652833,16762050,93711,16776289,16755899,16746787,14393,Tag0,unknown
1499247593902,0,-264,-5.80078125E-5,27,43,79,2683863,652833,16762050,93711,16776289,16755899,16746787,14393,Tag0,unknown
1499247593902,0,-334,-7.338867187500001E-5,27,43,79,2683863,652833,16762050,93711,16776289,16755899,16746787,14393,Tag0,unknown
1499247593902,0,-130,-2.8564453125E-5,27,43,79,2683863,652833,16762050,93711,16776289,16755899,16746787,14393,Tag0,unknown
1499247593902,0,-131,-2.87841796875E-5,27,43,79,2683863,652833,16762050,93711,16776289,16755899,16746787,14393,Tag0,unknown
1499247593903,0,-381,-8.371582031250001E-5,27,43,79,2683863,652833,16762050,93711,16776289,16755899,16746787,14393,Tag0,unknown
1499247593903,0,-184,-4.04296875E-5,27,43,79,2683863,652833,16762050,93711,16776289,16755899,16746787,14393,Tag0,unknown
1499247593903,0,-524,-1.1513671875E-4,27,43,79,2683863,652833,16762050,93711,16776289,16755899,16746787,14393,Tag0,unknown
1499247593904,0,-524,-1.1513671875E-4,27,43,79,2683863,652833,16762050,93711,16776289,16755899,16746787,14393,Tag0,unknown
1499247593904,0,-204,-4.4824218749999996E-5,27,43,79,2683863,652833,16762050,93711,16776289,16755899,16746787,14393,Tag0,unknown
1499247593905,0,-167,-3.6694335937500004E-5,27,43,79,2683863,652833,16762050,93711,16776289,16755899,16746787,14393,Tag0,unknown
1499247593905,0,-201,-4.41650390625E-5,27,43,79,2683863,652833,16762050,93711,16776289,16755899,16746787,14393,Tag0,unknown
1499247593905,0,-251,-5.5151367187500004E-5,27,43,79,2683863,652833,16762050,93711,16776289,16755899,16746787,14393,Tag0,unknown
1499247593906,0,-537,-1.179931640625E-4,27,43,79,2683863,652833,16762050,93711,16776289,16755899,16746787,14393,Tag0,unknown
1499247593906,0,-555,-1.219482421875E-4,27,43,79,2683863,652833,16762050,93711,16776289,16755899,16746787,14393,Tag0,unknown
1499247593906,0,-556,-1.2216796875000002E-4,27,43,79,2683863,652833,16762050,93711,16776289,16755899,16746787,14393,Tag0,unknown
1499247593907,0,-554,-1.2172851562500001E-4,27,43,79,2683863,652833,16762050,93711,16776289,16755899,16746787,14393,Tag0,unknown
1499247593907,0,-561,-1.232666015625E-4,27,43,79,2683863,652833,16762050,93711,16776289,16755899,16746787,14393,Tag0,unknown
1499247593907,0,-564,-1.2392578125E-4,27,43,79,2683863,652833,16762050,93711,16776289,16755899,16746787,14393,Tag0,unknown
1499247593908,0,-562,-1.23486328125E-4,27,43,79,2683863,652833,16762050,93711,16776289,16755899,16746787,14393,Tag0,unknown
1499247593908,0,-583,-1.281005859375E-4,27,43,79,2683863,652833,16762050,93711,16776289,16755899,16746787,14393,Tag0,unknown
1499247593908,0,-613,-1.3469238281250002E-4,27,43,79,2683863,652833,16762050,93711,16776289,16755899,16746787,14393,Tag0,unknown
1499247593909,0,-582,-1.27880859375E-4,27,43,79,2683863,652833,16762050,93711,16776289,16755899,16746787,14393,Tag0,unknown
1499247593909,0,-244,-5.361328125E-5,27,43,79,2683863,652833,16762050,93711,16776289,16755899,16746787,14393,Tag0,unknown
1499247593909,0,-185,-4.06494140625E-5,27,43,79,2683863,652833,16762050,93711,16776289,16755899,16746787,14393,Tag0,unknown
1499247593910,0,-205,-4.50439453125E-5,27,43,79,2683863,652833,16762050,93711,16776289,16755899,16746787,14393,Tag0,unknown
1499247593910,0,-534,-1.17333984375E-4,27,43,79,2683863,652833,16762050,93711,16776289,16755899,16746787,14393,Tag0,unknown
1499247593910,0,-569,-1.250244140625E-4,27,43,79,2683863,652833,16762050,93711,16776289,16755899,16746787,14393,Tag0,unknown
1499247593911,0,-549,-1.2062988281250001E-4,27,43,79,2683863,652833,16762050,93711,16776289,16755899,16746787,14393,Tag0,unknown
1499247593911,0,-254,-5.5810546875E-5,27,43,79,2683863,652833,16762050,93711,16776289,16755899,16746787,14393,Tag0,unknown
1499247593911,0,-243,-5.33935546875E-5,27,43,79,2683863,652833,16762050,93711,16776289,16755899,16746787,14393,Tag0,unknown
1499247593912,0,-513,-1.127197265625E-4,27,43,79,2683863,652833,16762050,93711,16776289,16755899,16746787,14393,Tag0,unknown
1499247593912,0,-529,-1.162353515625E-4,27,43,79,2683863,652833,16762050,93711,16776289,16755899,16746787,14393,Tag0,unknown
1499247593912,0,-252,-5.537109375E-5,27,43,79,2683863,652833,16762050,93711,16776289,16755899,16746787,14393,Tag0,unknown
1499247593912,0,-212,-4.6582031250000006E-5,27,43,79,2683863,652833,16762050,93711,16776289,16755899,16746787,14393,Tag0,unknown
1499247593913,0,-187,-4.10888671875E-5,27,43,79,2683863,652833,16762050,93711,16776289,16755899,16746787,14393,Tag0,unknown
1499247593913,0,-167,-3.6694335937500004E-5,27,43,79,2683863,652833,16762050,93711,16776289,16755899,16746787,14393,Tag0,unknown
1499247593913,0,-135,-2.96630859375E-5,27,43,79,2683863,652833,16762050,93711,16776289,16755899,16746787,14393,Tag0,unknown
1499247593914,0,-165,-3.62548828125E-5,27,43,79,2683863,652833,16762050,93711,16776289,16755899,16746787,14393,Tag0,unknown
1499247593914,0,-231,-5.07568359375E-5,27,43,79,2683863,652833,16762050,93711,16776289,16755899,16746787,14393,Tag0,unknown
1499247593914,0,-247,-5.42724609375E-5,27,43,79,2683863,652833,16762050,93711,16776289,16755899,16746787,14393,Tag0,unknown
1499247593915,0,-201,-4.41650390625E-5,27,43,79,2683863,652833,16762050,93711,16776289,16755899,16746787,14393,Tag0,unknown
1499247593915,0,-168,-3.691406250000001E-5,27,43,79,2683863,652833,16762050,93711,16776289,16755899,16746787,14393,Tag0,unknown
1499247593915,0,-183,-4.02099609375E-5,27,43,79,2683863,652833,16762050,93711,16776289,16755899,16746787,14393,Tag0,unknown
1499247593916,0,-205,-4.50439453125E-5,27,43,79,2683863,652833,16762050,93711,16776289,16755899,16746787,14393,Tag0,unknown
1499247593917,0,-201,-4.41650390625E-5,27,43,79,2683863,652833,16762050,93711,16776289,16755899,16746787,14393,Tag0,unknown
1499247593917,0,-164,-3.6035156249999995E-5,27,43,79,2683863,652833,16762050,93711,16776289,16755899,16746787,14393,Tag0,unknown
1499247593917,0,-145,-3.18603515625E-5,27,43,79,2683863,652833,16762050,93711,16776289,16755899,16746787,14393,Tag0,unknown
1499247593918,0,-360,-7.91015625E-5,27,43,79,2683863,652833,16762050,93711,16776289,16755899,16746787,14393,Tag0,unknown
1499247593918,0,-317,-6.96533203125E-5,27,43,79,2683863,652833,16762050,93711,16776289,16755899,16746787,14393,Tag0,unknown
1499247593918,0,-322,-7.0751953125E-5,27,43,79,2683863,652833,16762050,93711,16776289,16755899,16746787,14393,Tag0,unknown
1499247593919,0,-330,-7.2509765625E-5,27,43,79,2683863,652833,16762050,93711,16776289,16755899,16746787,14393,Tag0,unknown
1499247593919,0,-333,-7.316894531249999E-5,27,43,79,2683863,652833,16762050,93711,16776289,16755899,16746787,14393,Tag0,unknown
1499247593919,0,-317,-6.96533203125E-5,27,43,79,2683863,652833,16762050,93711,16776289,16755899,16746787,14393,Tag0,unknown
1499247593919,0,-317,-6.96533203125E-5,27,43,79,2683863,652833,16762050,93711,16776289,16755899,16746787,14393,Tag0,unknown
1499247593920,0,-347,-7.62451171875E-5,27,43,79,2683863,652833,16762050,93711,16776289,16755899,16746787,14393,Tag0,unknown
1499247593920,0,-373,-8.19580078125E-5,27,43,79,2683863,652833,16762050,93711,16776289,16755899,16746787,14393,Tag0,unknown
1499247593920,0,-330,-7.2509765625E-5,27,43,79,2683863,652833,16762050,93711,16776289,16755899,16746787,14393,Tag0,unknown
1499247593920,0,3,6.591796875E-7,27,43,79,2683863,652833,16762050,93711,16776289,16755899,16746787,14393,Tag0,unknown
1499247593922,0,38,8.349609375E-6,27,43,77,2683863,652833,16762050,93711,16776289,16755899,16746787,14393,Tag0,unknown
1499247593923,0,35,7.6904296875E-6,27,43,77,2683863,652833,16762050,93711,16776289,16755899,16746787,14393,Tag0,unknown
1499247593923,0,-259,-5.69091796875E-5,27,43,77,2683863,652833,16762050,93711,16776289,16755899,16746787,14393,Tag0,unknown
1499247593923,0,-280,-6.15234375E-5,27,43,77,2683863,652833,16762050,93711,16776289,16755899,16746787,14393,Tag0,unknown
1499247593924,0,10,2.197265625E-6,27,43,77,2683863,652833,16762050,93711,16776289,16755899,16746787,14393,Tag0,unknown
1499247593924,0,48,1.0546875E-5,27,43,77,2683863,652833,16762050,93711,16776289,16755899,16746787,14393,Tag0,unknown
1499247593924,0,50,1.0986328125E-5,27,43,77,2683863,652833,16762050,93711,16776289,16755899,16746787,14393,Tag0,unknown
1499247593924,0,34,7.4707031250000005E-6,27,43,77,2683863,652833,16762050,93711,16776289,16755899,16746787,14393,Tag0,unknown
1499247593925,0,32,7.03125E-6,27,43,77,2683863,652833,16762050,93711,16776289,16755899,16746787,14393,Tag0,unknown
1499247593925,0,29,6.3720703125E-6,27,43,77,2683863,652833,16762050,93711,16776289,16755899,16746787,14393,Tag0,unknown
1499247593925,0,42,9.228515625000002E-6,27,43,77,2683863,652833,16762050,93711,16776289,16755899,16746787,14393,Tag0,unknown
1499247593926,0,88,1.93359375E-5,27,43,77,2683863,652833,16762050,93711,16776289,16755899,16746787,14393,Tag0,unknown
1499247593926,0,120,2.63671875E-5,27,43,77,2683863,652833,16762050,93711,16776289,16755899,16746787,14393,Tag0,unknown
1499247593927,0,117,2.5708007812499998E-5,27,43,77,2683863,652833,16762050,93711,16776289,16755899,16746787,14393,Tag0,unknown
1499247593927,0,98,2.1533203125E-5,27,43,77,2683863,652833,16762050,93711,16776289,16755899,16746787,14393,Tag0,unknown
1499247593927,0,102,2.2412109374999998E-5,27,43,77,2683863,652833,16762050,93711,16776289,16755899,16746787,14393,Tag0,unknown
1499247593928,0,112,2.4609375E-5,27,43,77,2683863,652833,16762050,93711,16776289,16755899,16746787,14393,Tag0,unknown
1499247593928,0,86,1.8896484375000003E-5,27,43,77,2683863,652833,16762050,93711,16776289,16755899,16746787,14393,Tag0,unknown
1499247593928,0,56,1.23046875E-5,27,43,77,2683863,652833,16762050,93711,16776289,16755899,16746787,14393,Tag0,unknown
1499247593928,0,40,8.7890625E-6,27,43,77,2683863,652833,16762050,93711,16776289,16755899,16746787,14393,Tag0,unknown
1499247593929,0,6,1.318359375E-6,27,43,77,2683863,652833,16762050,93711,16776289,16755899,16746787,14393,Tag0,unknown
1499247593929,0,-279,-6.13037109375E-5,27,43,77,2683863,652833,16762050,93711,16776289,16755899,16746787,14393,Tag0,unknown
1499247593929,0,-270,-5.9326171875E-5,27,43,77,2683863,652833,16762050,93711,16776289,16755899,16746787,14393,Tag0,unknown
1499247593929,0,5,1.0986328125E-6,27,43,77,2683863,652833,16762050,93711,16776289,16755899,16746787,14393,Tag0,unknown
1499247593930,0,40,8.7890625E-6,27,43,77,2683863,652833,16762050,93711,16776289,16755899,16746787,14393,Tag0,unknown
1499247593930,0,72,1.58203125E-5,27,43,77,2683863,652833,16762050,93711,16776289,16755899,16746787,14393,Tag0,unknown
1499247593930,0,87,1.91162109375E-5,27,43,77,2683863,652833,16762050,93711,16776289,16755899,16746787,14393,Tag0,unknown
1499247593930,0,74,1.6259765625E-5,27,43,77,2683863,652833,16762050,93711,16776289,16755899,16746787,14393,Tag0,unknown
1499247593931,0,41,9.008789062499999E-6,27,43,77,2683863,652833,16762050,93711,16776289,16755899,16746787,14393,Tag0,unknown
1499247593931,0,20,4.39453125E-6,27,43,77,2683863,652833,16762050,93711,16776289,16755899,16746787,14393,Tag0,unknown
1499247593931,0,32,7.03125E-6,27,43,77,2683863,652833,16762050,93711,16776289,16755899,16746787,14393,Tag0,unknown
1499247593931,0,83,1.82373046875E-5,27,43,77,2683863,652833,16762050,93711,16776289,16755899,16746787,14393,Tag0,unknown
1499247593932,0,116,2.548828125E-5,27,43,77,2683863,652833,16762050,93711,16776289,16755899,16746787,14393,Tag0,unknown
1499247593932,0,106,2.3291015625000003E-5,27,43,77,2683863,652833,16762050,93711,16776289,16755899,16746787,14393,Tag0,unknown
1499247593932,0,101,2.2192382812500002E-5,27,43,77,2683863,652833,16762050,93711,16776289,16755899,16746787,14393,Tag0,unknown
1499247593932,0,99,2.1752929687500003E-5,27,43,77,2683863,652833,16762050,93711,16776289,16755899,16746787,14393,Tag0,unknown
1499247593933,0,107,2.35107421875E-5,27,43,77,2683863,652833,16762050,93711,16776289,16755899,16746787,14393,Tag0,unknown
1499247593933,0,-125,-2.74658203125E-5,27,43,77,2683863,652833,16762050,93711,16776289,16755899,16746787,14393,Tag0,unknown
1499247593933,0,-84,-1.8457031250000004E-5,27,43,77,2683863,652833,16762050,93711,16776289,16755899,16746787,14393,Tag0,unknown
1499247593934,0,-42,-9.228515625000002E-6,27,43,77,2683863,652833,16762050,93711,16776289,16755899,16746787,14393,Tag0,unknown
1499247593934,0,-71,-1.56005859375E-5,27,43,77,2683863,652833,16762050,93711,16776289,16755899,16746787,14393,Tag0,unknown
1499247593934,0,-126,-2.7685546875E-5,27,43,77,2683863,652833,16762050,93711,16776289,16755899,16746787,14393,Tag0,unknown
1499247593934,0,88,1.93359375E-5,27,43,77,2683863,652833,16762050,93711,16776289,16755899,16746787,14393,Tag0,unknown
1499247593935,0,98,2.1533203125E-5,27,43,77,2683863,652833,16762050,93711,16776289,16755899,16746787,14393,Tag0,unknown
1499247593935,0,-105,-2.30712890625E-5,27,43,77,2683863,652833,16762050,93711,16776289,16755899,16746787,14393,Tag0,unknown
1499247593935,0,-94,-2.0654296875000002E-5,27,43,77,2683863,652833,16762050,93711,16776289,16755899,16746787,14393,Tag0,unknown
1499247593936,0,116,2.548828125E-5,27,43,77,2683863,652833,16762050,93711,16776289,16755899,16746787,14393,Tag0,unknown
1499247593936,0,85,1.86767578125E-5,27,43,77,2683863,652833,16762050,93711,16776289,16755899,16746787,14393,Tag0,unknown
1499247593936,0,73,1.6040039062500002E-5,27,43,77,2683863,652833,16762050,93711,16776289,16755899,16746787,14393,Tag0,unknown
1499247593937,0,74,1.6259765625E-5,27,43,77,2683863,652833,16762050,93711,16776289,16755899,16746787,14393,Tag0,unknown
1499247593937,0,96,2.109375E-5,27,43,77,2683863,652833,16762050,93711,16776289,16755899,16746787,14393,Tag0,unknown
1499247593937,0,-128,-2.8125E-5,27,43,77,2683863,652833,16762050,93711,16776289,16755899,16746787,14393,Tag0,unknown
1499247593937,0,-87,-1.91162109375E-5,27,43,77,2683863,652833,16762050,93711,16776289,16755899,16746787,14393,Tag0,unknown
1499247593938,0,-70,-1.5380859375E-5,27,43,77,2683863,652833,16762050,93711,16776289,16755899,16746787,14393,Tag0,unknown
1499247593938,0,-94,-2.0654296875000002E-5,27,43,77,2683863,652833,16762050,93711,16776289,16755899,16746787,14393,Tag0,unknown
1499247593939,0,104,2.28515625E-5,27,43,77,2683863,652833,16762050,93711,16776289,16755899,16746787,14393,Tag0,unknown
1499247593939,0,75,1.64794921875E-5,27,43,77,2683863,652833,16762050,93711,16776289,16755899,16746787,14393,Tag0,unknown
1499247593939,0,88,1.93359375E-5,27,43,77,2683863,652833,16762050,93711,16776289,16755899,16746787,14393,Tag0,unknown
1499247593939,0,116,2.548828125E-5,27,43,77,2683863,652833,16762050,93711,16776289,16755899,16746787,14393,Tag0,unknown
1499247593940,0,-128,-2.8125E-5,27,43,77,2683863,652833,16762050,93711,16776289,16755899,16746787,14393,Tag0,unknown
1499247593940,0,115,2.52685546875E-5,27,43,77,2683863,652833,16762050,93711,16776289,16755899,16746787,14393,Tag0,unknown
1499247593940,0,107,2.35107421875E-5,27,43,77,2683863,652833,16762050,93711,16776289,16755899,16746787,14393,Tag0,unknown
1499247593940,0,116,2.548828125E-5,27,43,77,2683863,652833,16762050,93711,16776289,16755899,16746787,14393,Tag0,unknown
1499247593941,0,-127,-2.79052734375E-5,27,43,77,2683863,652833,16762050,93711,16776289,16755899,16746787,14393,Tag0,unknown
1499247593941,0,-103,-2.26318359375E-5,27,43,77,2683863,652833,16762050,93711,16776289,16755899,16746787,14393,Tag0,unknown
1499247593941,0,-59,-1.29638671875E-5,27,43,77,2683863,652833,16762050,93711,16776289,16755899,16746787,14393,Tag0,unknown
1499247593941,0,-21,-4.614257812500001E-6,27,43,77,2683863,652833,16762050,93711,16776289,16755899,16746787,14393,Tag0,unknown
1499247593942,0,-38,-8.349609375E-6,27,43,77,2683863,652833,16762050,93711,16776289,16755899,16746787,14393,Tag0,unknown
1499247593942,0,-92,-2.021484375E-5,27,43,77,2683863,652833,16762050,93711,16776289,16755899,16746787,14393,Tag0,unknown
1499247593942,0,122,2.6806640625E-5,27,43,77,2683863,652833,16762050,93711,16776289,16755899,16746787,14393,Tag0,unknown
1499247593942,0,-127,-2.79052734375E-5,27,43,77,2683863,652833,16762050,93711,16776289,16755899,16746787,14393,Tag0,unknown
1499247593943,0,124,2.724609375E-5,27,43,77,2683863,652833,16762050,93711,16776289,16755899,16746787,14393,Tag0,unknown
1499247593943,0,105,2.30712890625E-5,27,43,77,2683863,652833,16762050,93711,16776289,16755899,16746787,14393,Tag0,unknown
1499247593943,0,98,2.1533203125E-5,27,43,77,2683863,652833,16762050,93711,16776289,16755899,16746787,14393,Tag0,unknown
1499247593944,0,101,2.2192382812500002E-5,27,43,77,2683863,652833,16762050,93711,16776289,16755899,16746787,14393,Tag0,unknown
1499247593944,0,105,2.30712890625E-5,27,43,77,2683863,652833,16762050,93711,16776289,16755899,16746787,14393,Tag0,unknown
1499247593944,0,100,2.197265625E-5,27,43,77,2683863,652833,16762050,93711,16776289,16755899,16746787,14393,Tag0,unknown
1499247593944,0,90,1.9775390625E-5,27,43,77,2683863,652833,16762050,93711,16776289,16755899,16746787,14393,Tag0,unknown
1499247593945,0,113,2.48291015625E-5,27,43,77,2683863,652833,16762050,93711,16776289,16755899,16746787,14393,Tag0,unknown
1499247593945,0,-109,-2.39501953125E-5,27,43,77,2683863,652833,16762050,93711,16776289,16755899,16746787,14393,Tag0,unknown
1499247593945,0,-87,-1.91162109375E-5,27,43,77,2683863,652833,16762050,93711,16776289,16755899,16746787,14393,Tag0,unknown
1499247593946,0,-64,-1.40625E-5,27,43,77,2683863,652833,16762050,93711,16776289,16755899,16746787,14393,Tag0,unknown
1499247593946,0,-75,-1.64794921875E-5,27,43,77,2683863,652833,16762050,93711,16776289,16755899,16746787,14393,Tag0,unknown
1499247593946,0,-119,-2.6147460937500004E-5,27,43,77,2683863,652833,16762050,93711,16776289,16755899,16746787,14393,Tag0,unknown
1499247593947,0,91,1.99951171875E-5,27,43,77,2683863,652833,16762050,93711,16776289,16755899,16746787,14393,Tag0,unknown
1499247593947,0,82,1.8017578124999998E-5,27,43,77,2683863,652833,16762050,93711,16776289,16755899,16746787,14393,Tag0,unknown
1499247593947,0,103,2.26318359375E-5,27,43,77,2683863,652833,16762050,93711,16776289,16755899,16746787,14393,Tag0,unknown
1499247593947,0,104,2.28515625E-5,27,43,77,2683863,652833,16762050,93711,16776289,16755899,16746787,14393,Tag0,unknown
1499247593948,0,104,2.28515625E-5,27,43,77,2683863,652833,16762050,93711,16776289,16755899,16746787,14393,Tag0,unknown
1499247593948,0,-125,-2.74658203125E-5,27,43,77,2683863,652833,16762050,93711,16776289,16755899,16746787,14393,Tag0,unknown
1499247593948,0,-93,-2.04345703125E-5,27,43,77,2683863,652833,16762050,93711,16776289,16755899,16746787,14393,Tag0,unknown
1499247593948,0,-89,-1.95556640625E-5,27,43,77,2683863,652833,16762050,93711,16776289,16755899,16746787,14393,Tag0,unknown
1499247593949,0,-91,-1.99951171875E-5,27,43,77,2683863,652833,16762050,93711,16776289,16755899,16746787,14393,Tag0,unknown
1499247593949,0,-90,-1.9775390625E-5,27,43,77,2683863,652833,16762050,93711,16776289,16755899,16746787,14393,Tag0,unknown
1499247593949,0,-71,-1.56005859375E-5,27,43,77,2683863,652833,16762050,93711,16776289,16755899,16746787,14393,Tag0,unknown
1499247593950,0,-47,-1.0327148437500001E-5,27,43,77,2683863,652833,16762050,93711,16776289,16755899,16746787,14393,Tag0,unknown
1499247593950,0,-91,-1.99951171875E-5,27,43,77,2683863,652833,16762050,93711,16776289,16755899,16746787,14393,Tag0,unknown
1499247593950,0,119,2.6147460937500004E-5,27,43,77,2683863,652833,16762050,93711,16776289,16755899,16746787,14393,Tag0,unknown
1499247593950,0,-128,-2.8125E-5,27,43,77,2683863,652833,16762050,93711,16776289,16755899,16746787,14393,Tag0,unknown
1499247593951,0,-94,-2.0654296875000002E-5,27,43,77,2683863,652833,16762050,93711,16776289,16755899,16746787,14393,Tag0,unknown
1499247593951,0,-76,-1.669921875E-5,27,43,77,2683863,652833,16762050,93711,16776289,16755899,16746787,14393,Tag0,unknown
1499247593951,0,-75,-1.64794921875E-5,27,43,77,2683863,652833,16762050,93711,16776289,16755899,16746787,14393,Tag0,unknown
1499247593951,0,-100,-2.197265625E-5,27,43,77,2683863,652833,16762050,93711,16776289,16755899,16746787,14393,Tag0,unknown
1499247593952,0,122,2.6806640625E-5,27,43,77,2683863,652833,16762050,93711,16776289,16755899,16746787,14393,Tag0,unknown
1499247593952,0,114,2.5048828125000003E-5,27,43,77,2683863,652833,16762050,93711,16776289,16755899,16746787,14393,Tag0,unknown
1499247593952,0,121,2.6586914062500003E-5,27,43,77,2683863,652833,16762050,93711,16776289,16755899,16746787,14393,Tag0,unknown
1499247593952,0,122,2.6806640625E-5,27,43,77,2683863,652833,16762050,93711,16776289,16755899,16746787,14393,Tag0,unknown
1499247593953,0,106,2.3291015625000003E-5,27,43,77,2683863,652833,16762050,93711,16776289,16755899,16746787,14393,Tag0,unknown
1499247593953,0,83,1.82373046875E-5,27,43,77,2683863,652833,16762050,93711,16776289,16755899,16746787,14393,Tag0,unknown
1499247593953,0,80,1.7578125E-5,27,43,77,2683863,652833,16762050,93711,16776289,16755899,16746787,14393,Tag0,unknown
1499247593953,0,96,2.109375E-5,27,43,77,2683863,652833,16762050,93711,16776289,16755899,16746787,14393,Tag0,unknown
1499247593954,0,88,1.93359375E-5,27,43,77,2683863,652833,16762050,93711,16776289,16755899,16746787,14393,Tag0,unknown
1499247593954,0,72,1.58203125E-5,27,43,77,2683863,652833,16762050,93711,16776289,16755899,16746787,14393,Tag0,unknown
1499247593954,0,65,1.42822265625E-5,27,43,77,2683863,652833,16762050,93711,16776289,16755899,16746787,14393,Tag0,unknown
1499247593954,0,76,1.669921875E-5,27,43,77,2683863,652833,16762050,93711,16776289,16755899,16746787,14393,Tag0,unknown
1499247593955,0,104,2.28515625E-5,27,43,77,2683863,652833,16762050,93711,16776289,16755899,16746787,14393,Tag0,unknown
1499247593955,0,-119,-2.6147460937500004E-5,27,43,77,2683863,652833,16762050,93711,16776289,16755899,16746787,14393,Tag0,unknown
1499247593955,0,-122,-2.6806640625E-5,27,43,77,2683863,652833,16762050,93711,16776289,16755899,16746787,14393,Tag0,unknown
1499247593956,0,89,1.95556640625E-5,27,43,77,2683863,652833,16762050,93711,16776289,16755899,16746787,14393,Tag0,unknown
1499247593956,0,75,1.64794921875E-5,27,43,77,2683863,652833,16762050,93711,16776289,16755899,16746787,14393,Tag0,unknown
1499247593957,0,85,1.86767578125E-5,27,43,77,2683863,652833,16762050,93711,16776289,16755899,16746787,14393,Tag0,unknown
1499247593957,0,92,2.021484375E-5,27,43,77,2683863,652833,16762050,93711,16776289,16755899,16746787,14393,Tag0,unknown
1499247593957,0,105,2.30712890625E-5,27,43,77,2683863,652833,16762050,93711,16776289,16755899,16746787,14393,Tag0,unknown
1499247593958,0,108,2.3730468750000002E-5,27,43,77,2683863,652833,16762050,93711,16776289,16755899,16746787,14393,Tag0,unknown
1499247593958,0,103,2.26318359375E-5,27,43,77,2683863,652833,16762050,93711,16776289,16755899,16746787,14393,Tag0,unknown
1499247593958,0,97,2.13134765625E-5,27,43,77,2683863,652833,16762050,93711,16776289,16755899,16746787,14393,Tag0,unknown
1499247593958,0,69,1.51611328125E-5,27,43,77,2683863,652833,16762050,93711,16776289,16755899,16746787,14393,Tag0,unknown
1499247593958,0,24,5.2734375E-6,27,43,77,2683863,652833,16762050,93711,16776289,16755899,16746787,14393,Tag0,unknown
1499247593959,0,11,2.4169921875E-6,27,43,77,2683863,652833,16762050,93711,16776289,16755899,16746787,14393,Tag0,unknown
1499247593959,0,22,4.833984375E-6,27,43,77,2683863,652833,16762050,93711,16776289,16755899,16746787,14393,Tag0,unknown
1499247593959,0,33,7.2509765625E-6,27,43,77,2683863,652833,16762050,93711,16776289,16755899,16746787,14393,Tag0,unknown
1499247593959,0,33,7.2509765625E-6,27,43,77,2683863,652833,16762050,93711,16776289,16755899,16746787,14393,Tag0,unknown
1499247593959,0,37,8.1298828125E-6,27,43,77,2683863,652833,16762050,93711,16776289,16755899,16746787,14393,Tag0,unknown
1499247593960,0,19,4.1748046875E-6,27,43,77,2683863,652833,16762050,93711,16776289,16755899,16746787,14393,Tag0,unknown
1499247593960,0,-261,-5.73486328125E-5,27,43,77,2683863,652833,16762050,93711,16776289,16755899,16746787,14393,Tag0,unknown
1499247593960,0,-261,-5.73486328125E-5,27,43,77,2683863,652833,16762050,93711,16776289,16755899,16746787,14393,Tag0,unknown
1499247593960,0,8,1.7578125E-6,27,43,77,2683863,652833,16762050,93711,16776289,16755899,16746787,14393,Tag0,unknown
1499247593961,0,38,8.349609375E-6,27,43,77,2683863,652833,16762050,93711,16776289,16755899,16746787,14393,Tag0,unknown
1499247593961,0,64,1.40625E-5,27,43,77,2683863,652833,16762050,93711,16776289,16755899,16746787,14393,Tag0,unknown
1499247593961,0,68,1.4941406250000001E-5,27,43,77,2683863,652833,16762050,93711,16776289,16755899,16746787,14393,Tag0,unknown
1499247593961,0,108,2.3730468750000002E-5,27,43,77,2683863,652833,16762050,93711,16776289,16755899,16746787,14393,Tag0,unknown
1499247593961,0,-91,-1.99951171875E-5,27,43,77,2683863,652833,16762050,93711,16776289,16755899,16746787,14393,Tag0,unknown
1499247593962,0,113,2.48291015625E-5,27,43,77,2683863,652833,16762050,93711,16776289,16755899,16746787,14393,Tag0,unknown
1499247593962,0,27,5.9326171875000005E-6,27,43,77,2683863,652833,16762050,93711,16776289,16755899,16746787,14393,Tag0,unknown
1499247593962,0,41,9.008789062499999E-6,27,43,77,2683863,652833,16762050,93711,16776289,16755899,16746787,14393,Tag0,unknown
1499247593962,0,-124,-2.724609375E-5,27,43,77,2683863,652833,16762050,93711,16776289,16755899,16746787,14393,Tag0,unknown
1499247593962,0,-92,-2.021484375E-5,27,43,77,2683863,652833,16762050,93711,16776289,16755899,16746787,14393,Tag0,unknown
1499247593963,0,-115,-2.52685546875E-5,27,43,77,2683863,652833,16762050,93711,16776289,16755899,16746787,14393,Tag0,unknown
1499247593963,0,-124,-2.724609375E-5,27,43,77,2683863,652833,16762050,93711,16776289,16755899,16746787,14393,Tag0,unknown
1499247593963,0,-123,-2.70263671875E-5,27,43,77,2683863,652833,16762050,93711,16776289,16755899,16746787,14393,Tag0,unknown
1499247593963,0,122,2.6806640625E-5,27,43,77,2683863,652833,16762050,93711,16776289,16755899,16746787,14393,Tag0,unknown
1499247593963,0,99,2.1752929687500003E-5,27,43,77,2683863,652833,16762050,93711,16776289,16755899,16746787,14393,Tag0,unknown
1499247593964,0,81,1.77978515625E-5,27,43,77,2683863,652833,16762050,93711,16776289,16755899,16746787,14393,Tag0,unknown
1499247593964,0,85,1.86767578125E-5,27,43,77,2683863,652833,16762050,93711,16776289,16755899,16746787,14393,Tag0,unknown
1499247593969,0,101,2.2192382812500002E-5,27,43,77,2683863,652833,16762050,93711,16776289,16755899,16746787,14393,Tag0,unknown
1499247593969,0,112,2.4609375E-5,27,43,77,2683863,652833,16762050,93711,16776289,16755899,16746787,14393,Tag0,unknown
1499247593970,0,101,2.2192382812500002E-5,27,43,77,2683863,652833,16762050,93711,16776289,16755899,16746787,14393,Tag0,unknown
1499247593970,0,66,1.4501953125E-5,27,43,77,2683863,652833,16762050,93711,16776289,16755899,16746787,14393,Tag0,unknown
1499247593970,0,52,1.142578125E-5,27,43,77,2683863,652833,16762050,93711,16776289,16755899,16746787,14393,Tag0,unknown
1499247593971,0,71,1.56005859375E-5,27,43,77,2683863,652833,16762050,93711,16776289,16755899,16746787,14393,Tag0,unknown
1499247593971,0,92,2.021484375E-5,27,43,77,2683863,652833,16762050,93711,16776289,16755899,16746787,14393,Tag0,unknown
1499247593971,0,60,1.318359375E-5,27,43,77,2683863,652833,16762050,93711,16776289,16755899,16746787,14393,Tag0,unknown
1499247593971,0,1,2.197265625E-7,27,43,77,2683863,652833,16762050,93711,16776289,16755899,16746787,14393,Tag0,unknown
1499247593972,0,2,4.39453125E-7,27,43,77,2683863,652833,16762050,93711,16776289,16755899,16746787,14393,Tag0,unknown
1499247593972,0,39,8.5693359375E-6,27,43,77,2683863,652833,16762050,93711,16776289,16755899,16746787,14393,Tag0,unknown
1499247593972,0,58,1.2744140625E-5,27,43,77,2683863,652833,16762050,93711,16776289,16755899,16746787,14393,Tag0,unknown
1499247593974,0,57,1.2524414062500001E-5,27,43,77,2683863,652833,16762050,93711,16776289,16755899,16746787,14393,Tag0,unknown
1499247593977,0,23,5.0537109375E-6,27,43,77,2683863,652833,16762050,93711,16776289,16755899,16746787,14393,Tag0,unknown
1499247593978,0,2,4.39453125E-7,27,43,77,2683863,652833,16762050,93711,16776289,16755899,16746787,14393,Tag0,unknown
1499247593978,0,32,7.03125E-6,27,43,77,2683863,652833,16762050,93711,16776289,16755899,16746787,14393,Tag0,unknown
1499247593979,0,-127,-2.79052734375E-5,27,43,77,2683863,652833,16762050,93711,16776289,16755899,16746787,14393,Tag0,unknown
1499247593979,0,-64,-1.40625E-5,27,43,77,2683863,652833,16762050,93711,16776289,16755899,16746787,14393,Tag0,unknown
1499247593979,0,-110,-2.4169921875E-5,27,43,77,2683863,652833,16762050,93711,16776289,16755899,16746787,14393,Tag0,unknown
1499247593979,0,74,1.6259765625E-5,27,43,77,2683863,652833,16762050,93711,16776289,16755899,16746787,14393,Tag0,unknown
1499247593979,0,58,1.2744140625E-5,27,43,77,2683863,652833,16762050,93711,16776289,16755899,16746787,14393,Tag0,unknown
1499247593979,0,57,1.2524414062500001E-5,27,43,77,2683863,652833,16762050,93711,16776289,16755899,16746787,14393,Tag0,unknown
1499247593979,0,41,9.008789062499999E-6,27,43,77,2683863,652833,16762050,93711,16776289,16755899,16746787,14393,Tag0,unknown
1499247593980,0,8,1.7578125E-6,27,43,77,2683863,652833,16762050,93711,16776289,16755899,16746787,14393,Tag0,unknown
1499247593980,0,2,4.39453125E-7,27,43,77,2683863,652833,16762050,93711,16776289,16755899,16746787,14393,Tag0,unknown
1499247593991,0,22,4.833984375E-6,27,43,77,2683863,652833,16762050,93711,16776289,16755899,16746787,14393,Tag0,unknown
1499247593992,0,68,1.4941406250000001E-5,27,43,77,2683863,652833,16762050,93711,16776289,16755899,16746787,14393,Tag0,unknown
1499247593992,0,-126,-2.7685546875E-5,27,43,77,2683863,652833,16762050,93711,16776289,16755899,16746787,14393,Tag0,unknown
1499247594008,0,89,1.95556640625E-5,27,43,77,2683863,652833,16762050,93711,16776289,16755899,16746787,14393,Tag0,unknown
1499247594008,0,-264,-5.80078125E-5,27,43,77,2683863,652833,16762050,93711,16776289,16755899,16746787,14393,Tag0,unknown
1499247594008,0,-282,-6.1962890625E-5,27,43,77,2683863,652833,16762050,93711,16776289,16755899,16746787,14393,Tag0,unknown
1499247594008,0,20,4.39453125E-6,27,43,77,2683863,652833,16762050,93711,16776289,16755899,16746787,14393,Tag0,unknown
1499247594008,0,86,1.8896484375000003E-5,27,43,77,2683863,652833,16762050,93711,16776289,16755899,16746787,14393,Tag0,unknown
1499247594008,0,114,2.5048828125000003E-5,27,43,77,2683863,652833,16762050,93711,16776289,16755899,16746787,14393,Tag0,unknown
1499247594009,0,89,1.95556640625E-5,27,43,77,2683863,652833,16762050,93711,16776289,16755899,16746787,14393,Tag0,unknown
1499247594009,0,40,8.7890625E-6,27,43,77,2683863,652833,16762050,93711,16776289,16755899,16746787,14393,Tag0,unknown
1499247594009,0,-261,-5.73486328125E-5,27,43,77,2683863,652833,16762050,93711,16776289,16755899,16746787,14393,Tag0,unknown
1499247594009,0,-296,-6.50390625E-5,27,43,77,2683863,652833,16762050,93711,16776289,16755899,16746787,14393,Tag0,unknown
1499247594009,0,-290,-6.3720703125E-5,27,43,77,2683863,652833,16762050,93711,16776289,16755899,16746787,14393,Tag0,unknown
1499247594010,0,27,5.9326171875000005E-6,27,43,77,2683863,652833,16762050,93711,16776289,16755899,16746787,14393,Tag0,unknown
1499247594010,0,83,1.82373046875E-5,27,43,77,2683863,652833,16762050,93711,16776289,16755899,16746787,14393,Tag0,unknown
1499247594024,0,87,1.91162109375E-5,27,43,77,2683863,652833,16762050,93711,16776289,16755899,16746787,14393,Tag0,unknown
1499247594024,0,84,1.8457031250000004E-5,27,43,77,2683863,652833,16762050,93711,16776289,16755899,16746787,14393,Tag0,unknown
1499247594024,0,84,1.8457031250000004E-5,27,43,77,2683863,652833,16762050,93711,16776289,16755899,16746787,14393,Tag0,unknown
1499247594024,0,24,5.2734375E-6,27,43,77,2683863,652833,16762050,93711,16776289,16755899,16746787,14393,Tag0,unknown
1499247594024,0,-279,-6.13037109375E-5,27,43,77,2683863,652833,16762050,93711,16776289,16755899,16746787,14393,Tag0,unknown
1499247594025,0,-260,-5.712890625E-5,27,43,77,2683863,652833,16762050,93711,16776289,16755899,16746787,14393,Tag0,unknown
1499247594025,0,44,9.66796875E-6,27,43,77,2683863,652833,16762050,93711,16776289,16755899,16746787,14393,Tag0,unknown
1499247594025,0,69,1.51611328125E-5,27,43,77,2683863,652833,16762050,93711,16776289,16755899,16746787,14393,Tag0,unknown
1499247594025,0,68,1.4941406250000001E-5,27,43,77,2683863,652833,16762050,93711,16776289,16755899,16746787,14393,Tag0,unknown
1499247594025,0,66,1.4501953125E-5,27,43,77,2683863,652833,16762050,93711,16776289,16755899,16746787,14393,Tag0,unknown
1499247594025,0,72,1.58203125E-5,27,43,77,2683863,652833,16762050,93711,16776289,16755899,16746787,14393,Tag0,unknown
1499247594026,0,72,1.58203125E-5,27,43,77,2683863,652833,16762050,93711,16776289,16755899,16746787,14393,Tag0,unknown
1499247594026,0,68,1.4941406250000001E-5,27,43,77,2683863,652833,16762050,93711,16776289,16755899,16746787,14393,Tag0,unknown
1499247594026,0,97,2.13134765625E-5,27,43,77,2683863,652833,16762050,93711,16776289,16755899,16746787,14393,Tag0,unknown
1499247594026,0,-125,-2.74658203125E-5,27,43,77,2683863,652833,16762050,93711,16776289,16755899,16746787,14393,Tag0,unknown
1499247594026,0,116,2.548828125E-5,27,43,77,2683863,652833,16762050,93711,16776289,16755899,16746787,14393,Tag0,unknown
1499247594026,0,91,1.99951171875E-5,27,43,77,2683863,652833,16762050,93711,16776289,16755899,16746787,14393,Tag0,unknown
1499247594027,0,88,1.93359375E-5,27,43,77,2683863,652833,16762050,93711,16776289,16755899,16746787,14393,Tag0,unknown
1499247594027,0,80,1.7578125E-5,27,43,77,2683863,652833,16762050,93711,16776289,16755899,16746787,14393,Tag0,unknown
1499247594027,0,80,1.7578125E-5,27,43,77,2683863,652833,16762050,93711,16776289,16755899,16746787,14393,Tag0,unknown
1499247594027,0,65,1.42822265625E-5,27,43,77,2683863,652833,16762050,93711,16776289,16755899,16746787,14393,Tag0,unknown
1499247594027,0,43,9.448242187500001E-6,27,43,77,2683863,652833,16762050,93711,16776289,16755899,16746787,14393,Tag0,unknown
1499247594027,0,7,1.5380859375E-6,27,43,77,2683863,652833,16762050,93711,16776289,16755899,16746787,14393,Tag0,unknown
1499247594028,0,-279,-6.13037109375E-5,27,43,77,2683863,652833,16762050,93711,16776289,16755899,16746787,14393,Tag0,unknown
1499247594028,0,5,1.0986328125E-6,27,43,77,2683863,652833,16762050,93711,16776289,16755899,16746787,14393,Tag0,unknown
1499247594028,0,42,9.228515625000002E-6,27,43,77,2683863,652833,16762050,93711,16776289,16755899,16746787,14393,Tag0,unknown
1499247594028,0,64,1.40625E-5,27,43,77,2683863,652833,16762050,93711,16776289,16755899,16746787,14393,Tag0,unknown
1499247594028,0,60,1.318359375E-5,27,43,77,2683863,652833,16762050,93711,16776289,16755899,16746787,14393,Tag0,unknown
1499247594028,0,67,1.4721679687500002E-5,27,43,77,2683863,652833,16762050,93711,16776289,16755899,16746787,14393,Tag0,unknown
1499247594071,0,56,1.23046875E-5,27,43,77,2683863,652833,16762050,93711,16776289,16755899,16746787,14393,Tag0,unknown
1499247594071,0,35,7.6904296875E-6,27,43,77,2683863,652833,16762050,93711,16776289,16755899,16746787,14393,Tag0,unknown
1499247594072,0,28,6.15234375E-6,27,43,77,2683863,652833,16762050,93711,16776289,16755899,16746787,14393,Tag0,unknown
1499247594072,0,51,1.1206054687499999E-5,27,43,77,2683863,652833,16762050,93711,16776289,16755899,16746787,14393,Tag0,unknown
1499247594103,0,83,1.82373046875E-5,27,43,77,2683863,652833,16762050,93711,16776289,16755899,16746787,14393,Tag0,unknown
1499247594105,0,98,2.1533203125E-5,27,43,77,2683863,652833,16762050,93711,16776289,16755899,16746787,14393,Tag0,unknown
1499247594106,0,81,1.77978515625E-5,27,43,77,2683863,652833,16762050,93711,16776289,16755899,16746787,14393,Tag0,unknown
1499247594106,0,98,2.1533203125E-5,27,43,77,2683863,652833,16762050,93711,16776289,16755899,16746787,14393,Tag0,unknown
1499247594107,0,103,2.26318359375E-5,27,43,77,2683863,652833,16762050,93711,16776289,16755899,16746787,14393,Tag0,unknown
1499247594108,0,36,7.91015625E-6,27,43,77,2683863,652833,16762050,93711,16776289,16755899,16746787,14393,Tag0,unknown
1499247594133,0,-273,-5.998535156250001E-5,27,43,77,2683863,652833,16762050,93711,16776289,16755899,16746787,14393,Tag0,unknown
1499247594133,0,-258,-5.6689453125000004E-5,27,43,77,2683863,652833,16762050,93711,16776289,16755899,16746787,14393,Tag0,unknown
1499247594134,0,40,8.7890625E-6,27,43,77,2683863,652833,16762050,93711,16776289,16755899,16746787,14393,Tag0,unknown
1499247594134,0,72,1.58203125E-5,27,43,77,2683863,652833,16762050,93711,16776289,16755899,16746787,14393,Tag0,unknown
1499247594134,0,103,2.26318359375E-5,27,43,77,2683863,652833,16762050,93711,16776289,16755899,16746787,14393,Tag0,unknown
1499247594135,0,124,2.724609375E-5,27,43,77,2683863,652833,16762050,93711,16776289,16755899,16746787,14393,Tag0,unknown
1499247594135,0,-128,-2.8125E-5,27,43,77,2683863,652833,16762050,93711,16776289,16755899,16746787,14393,Tag0,unknown
1499247594135,0,-100,-2.197265625E-5,27,43,77,2683863,652833,16762050,93711,16776289,16755899,16746787,14393,Tag0,unknown
1499247594136,0,-88,-1.93359375E-5,27,43,77,2683863,652833,16762050,93711,16776289,16755899,16746787,14393,Tag0,unknown
1499247594136,0,106,2.3291015625000003E-5,27,43,77,2683863,652833,16762050,93711,16776289,16755899,16746787,14393,Tag0,unknown
1499247594136,0,56,1.23046875E-5,27,43,77,2683863,652833,16762050,93711,16776289,16755899,16746787,14393,Tag0,unknown
1499247594136,0,90,1.9775390625E-5,27,43,77,2683863,652833,16762050,93711,16776289,16755899,16746787,14393,Tag0,unknown
1499247594137,0,-121,-2.6586914062500003E-5,27,43,77,2683863,652833,16762050,93711,16776289,16755899,16746787,14393,Tag0,unknown
1499247594137,0,119,2.6147460937500004E-5,27,43,77,2683863,652833,16762050,93711,16776289,16755899,16746787,14393,Tag0,unknown
1499247594138,0,87,1.91162109375E-5,27,43,77,2683863,652833,16762050,93711,16776289,16755899,16746787,14393,Tag0,unknown
1499247594138,0,61,1.34033203125E-5,27,43,77,2683863,652833,16762050,93711,16776289,16755899,16746787,14393,Tag0,unknown
1499247594154,0,9,1.9775390625E-6,34,48,77,16752680,2874,854,274,140,387,313,16777118,Tag0,unknown
1499247594154,0,17,3.7353515625000003E-6,34,48,77,16752680,2874,854,274,140,387,313,16777118,Tag0,unknown
1499247594155,0,68,1.4941406250000001E-5,34,48,77,16752680,2874,854,274,140,387,313,16777118,Tag0,unknown
1499247594155,0,118,2.5927734375E-5,34,48,77,16752680,2874,854,274,140,387,313,16777118,Tag0,unknown
1499247594155,0,-109,-2.39501953125E-5,34,48,77,16752680,2874,854,274,140,387,313,16777118,Tag0,unknown
1499247594156,0,-126,-2.7685546875E-5,34,48,77,16752680,2874,854,274,140,387,313,16777118,Tag0,unknown
1499247594156,0,107,2.35107421875E-5,34,48,77,16752680,2874,854,274,140,387,313,16777118,Tag0,unknown
1499247594157,0,93,2.04345703125E-5,34,48,77,16752680,2874,854,274,140,387,313,16777118,Tag0,unknown
1499247594157,0,115,2.52685546875E-5,34,48,77,16752680,2874,854,274,140,387,313,16777118,Tag0,unknown
1499247594157,0,-128,-2.8125E-5,34,48,77,16752680,2874,854,274,140,387,313,16777118,Tag0,unknown
1499247594158,0,118,2.5927734375E-5,34,48,77,16752680,2874,854,274,140,387,313,16777118,Tag0,unknown
1499247594158,0,115,2.52685546875E-5,34,48,77,16752680,2874,854,274,140,387,313,16777118,Tag0,unknown
1499247594158,0,-126,-2.7685546875E-5,34,48,77,16752680,2874,854,274,140,387,313,16777118,Tag0,unknown
1499247594158,0,122,2.6806640625E-5,34,48,77,16752680,2874,854,274,140,387,313,16777118,Tag0,unknown
1499247594159,0,-117,-2.5708007812499998E-5,34,48,77,16752680,2874,854,274,140,387,313,16777118,Tag0,unknown
1499247594159,0,-69,-1.51611328125E-5,34,48,77,16752680,2874,854,274,140,387,313,16777118,Tag0,unknown
1499247594159,0,-70,-1.5380859375E-5,34,48,77,16752680,2874,854,274,140,387,313,16777118,Tag0,unknown
1499247594160,0,-100,-2.197265625E-5,34,48,77,16752680,2874,854,274,140,387,313,16777118,Tag0,unknown
1499247594160,0,-79,-1.7358398437500003E-5,34,48,77,16752680,2874,854,274,140,387,313,16777118,Tag0,unknown
1499247594160,0,-58,-1.2744140625E-5,34,48,77,16752680,2874,854,274,140,387,313,16777118,Tag0,unknown
1499247594161,0,102,2.2412109374999998E-5,34,48,77,16752680,2874,854,274,140,387,313,16777118,Tag0,unknown
1499247594161,0,3,6.591796875E-7,34,48,77,16752680,2874,854,274,140,387,313,16777118,Tag0,unknown
1499247594161,0,-264,-5.80078125E-5,34,48,77,16752680,2874,854,274,140,387,313,16777118,Tag0,unknown
1499247594161,0,32,7.03125E-6,34,48,77,16752680,2874,854,274,140,387,313,16777118,Tag0,unknown
1499247594162,0,56,1.23046875E-5,34,48,77,16752680,2874,854,274,140,387,313,16777118,Tag0,unknown
1499247594162,0,41,9.008789062499999E-6,34,48,77,16752680,2874,854,274,140,387,313,16777118,Tag0,unknown
1499247594162,0,-262,-5.7568359375E-5,34,48,77,16752680,2874,854,274,140,387,313,16777118,Tag0,unknown
1499247594182,0,-310,-6.8115234375E-5,34,48,77,16752680,2874,854,274,140,387,313,16777118,Tag0,unknown
1499247594182,0,-278,-6.108398437500001E-5,34,48,77,16752680,2874,854,274,140,387,313,16777118,Tag0,unknown
1499247594190,0,76,1.669921875E-5,34,48,77,16752680,2874,854,274,140,387,313,16777118,Tag0,unknown
1499247594190,0,-84,-1.8457031250000004E-5,34,48,77,16752680,2874,854,274,140,387,313,16777118,Tag0,unknown
1499247594191,0,-37,-8.1298828125E-6,34,48,77,16752680,2874,854,274,140,387,313,16777118,Tag0,unknown
1499247594191,0,-39,-8.5693359375E-6,34,48,77,16752680,2874,854,274,140,387,313,16777118,Tag0,unknown
1499247594192,0,-55,-1.20849609375E-5,34,48,77,16752680,2874,854,274,140,387,313,16777118,Tag0,unknown
1499247594192,0,-57,-1.2524414062500001E-5,34,48,77,16752680,2874,854,274,140,387,313,16777118,Tag0,unknown
1499247594194,0,-25,-5.4931640625E-6,34,48,77,16752680,2874,854,274,140,387,313,16777118,Tag0,unknown
1499247594195,0,-14,-3.076171875E-6,34,48,77,16752680,2874,854,274,140,387,313,16777118,Tag0,unknown
1499247594195,0,-27,-5.9326171875000005E-6,34,48,77,16752680,2874,854,274,140,387,313,16777118,Tag0,unknown
1499247594197,0,-43,-9.448242187500001E-6,34,48,77,16752680,2874,854,274,140,387,313,16777118,Tag0,unknown
1499247594197,0,-61,-1.34033203125E-5,34,48,77,16752680,2874,854,274,140,387,313,16777118,Tag0,unknown
1499247594198,0,-61,-1.34033203125E-5,34,48,77,16752680,2874,854,274,140,387,313,16777118,Tag0,unknown
1499247594198,0,-87,-1.91162109375E-5,34,48,77,16752680,2874,854,274,140,387,313,16777118,Tag0,unknown
1499247594198,0,-122,-2.6806640625E-5,34,48,77,16752680,2874,854,274,140,387,313,16777118,Tag0,unknown
1499247594207,0,104,2.28515625E-5,34,48,77,16752680,2874,854,274,140,387,313,16777118,Tag0,unknown
1499247594207,0,37,8.1298828125E-6,34,48,77,16752680,2874,854,274,140,387,313,16777118,Tag0,unknown
1499247594208,0,-310,-6.8115234375E-5,34,48,77,16752680,2874,854,274,140,387,313,16777118,Tag0,unknown
1499247594208,0,-356,-7.822265625E-5,34,48,77,16752680,2874,854,274,140,387,313,16777118,Tag0,unknown
1499247594209,0,-342,-7.5146484375E-5,34,48,77,16752680,2874,854,274,140,387,313,16777118,Tag0,unknown
1499247594209,0,-275,-6.04248046875E-5,34,48,77,16752680,2874,854,274,140,387,313,16777118,Tag0,unknown
1499247594210,0,20,4.39453125E-6,34,48,77,16752680,2874,854,274,140,387,313,16777118,Tag0,unknown
1499247594210,0,-257,-5.64697265625E-5,34,48,77,16752680,2874,854,274,140,387,313,16777118,Tag0,unknown
1499247594211,0,19,4.1748046875E-6,34,48,77,16752680,2874,854,274,140,387,313,16777118,Tag0,unknown
1499247594211,0,66,1.4501953125E-5,34,48,77,16752680,2874,854,274,140,387,313,16777118,Tag0,unknown
1499247594212,0,89,1.95556640625E-5,34,48,77,16752680,2874,854,274,140,387,313,16777118,Tag0,unknown
1499247594212,0,92,2.021484375E-5,34,48,77,16752680,2874,854,274,140,387,313,16777118,Tag0,unknown
1499247594212,0,57,1.2524414062500001E-5,34,48,77,16752680,2874,854,274,140,387,313,16777118,Tag0,unknown
1499247594213,0,-309,-6.78955078125E-5,34,48,77,16752680,2874,854,274,140,387,313,16777118,Tag0,unknown
1499247594213,0,-338,-7.426757812499999E-5,34,48,77,16752680,2874,854,274,140,387,313,16777118,Tag0,unknown
1499247594223,0,89,1.95556640625E-5,34,48,77,16752680,2874,854,274,140,387,313,16777118,Tag0,unknown
1499247594241,0,93,2.04345703125E-5,34,48,77,16752680,2874,854,274,140,387,313,16777118,Tag0,unknown
1499247594242,0,41,9.008789062499999E-6,34,48,77,16752680,2874,854,274,140,387,313,16777118,Tag0,unknown
1499247594242,0,72,1.58203125E-5,34,48,77,16752680,2874,854,274,140,387,313,16777118,Tag0,unknown
1499247594242,0,-300,-6.591796875E-5,34,48,77,16752680,2874,854,274,140,387,313,16777118,Tag0,unknown
1499247594243,0,-195,-4.28466796875E-5,34,48,77,16752680,2874,854,274,140,387,313,16777118,Tag0,unknown
1499247594243,0,-380,-8.349609375E-5,34,48,77,16752680,2874,854,274,140,387,313,16777118,Tag0,unknown
1499247594244,0,70,1.5380859375E-5,34,48,77,16752680,2874,854,274,140,387,313,16777118,Tag0,unknown
1499247594244,0,72,1.58203125E-5,34,48,77,16752680,2874,854,274,140,387,313,16777118,Tag0,unknown
1499247594244,0,74,1.6259765625E-5,34,48,77,16752680,2874,854,274,140,387,313,16777118,Tag0,unknown
1499247594245,0,-105,-2.30712890625E-5,34,48,77,16752680,2874,854,274,140,387,313,16777118,Tag0,unknown
1499247594245,0,-85,-1.86767578125E-5,34,48,77,16752680,2874,854,274,140,387,313,16777118,Tag0,unknown
1499247594246,0,1,2.197265625E-7,34,48,77,16752680,2874,854,274,140,387,313,16777118,Tag0,unknown
1499247594246,0,-278,-6.108398437500001E-5,34,48,77,16752680,2874,854,274,140,387,313,16777118,Tag0,unknown
1499247594246,0,32,7.03125E-6,34,48,77,16752680,2874,854,274,140,387,313,16777118,Tag0,unknown
1499247594247,0,-327,-7.18505859375E-5,34,48,77,16752680,2874,854,274,140,387,313,16777118,Tag0,unknown
1499247594247,0,-345,-7.58056640625E-5,34,48,77,16752680,2874,854,274,140,387,313,16777118,Tag0,unknown
1499247594247,0,25,5.4931640625E-6,34,48,77,16752680,2874,854,274,140,387,313,16777118,Tag0,unknown
1499247594248,0,106,2.3291015625000003E-5,34,48,77,16752680,2874,854,274,140,387,313,16777118,Tag0,unknown
1499247594248,0,-84,-1.8457031250000004E-5,34,48,77,16752680,2874,854,274,140,387,313,16777118,Tag0,unknown
1499247594248,0,90,1.9775390625E-5,34,48,77,16752680,2874,854,274,140,387,313,16777118,Tag0,unknown
1499247594249,0,-279,-6.13037109375E-5,34,48,77,16752680,2874,854,274,140,387,313,16777118,Tag0,unknown
1499247594249,0,32,7.03125E-6,34,48,77,16752680,2874,854,274,140,387,313,16777118,Tag0,unknown
1499247594249,0,65,1.42822265625E-5,34,48,77,16752680,2874,854,274,140,387,313,16777118,Tag0,unknown
1499247594250,0,1,2.197265625E-7,34,48,77,16752680,2874,854,274,140,387,313,16777118,Tag0,unknown
1499247594250,0,-307,-6.74560546875E-5,34,48,77,16752680,2874,854,274,140,387,313,16777118,Tag0,unknown
1499247594250,0,40,8.7890625E-6,34,48,77,16752680,2874,854,274,140,387,313,16777118,Tag0,unknown
1499247594251,0,89,1.95556640625E-5,34,48,77,16752680,2874,854,274,140,387,313,16777118,Tag0,unknown
1499247594251,0,42,9.228515625000002E-6,34,48,77,16752680,2874,854,274,140,387,313,16777118,Tag0,unknown
1499247594252,0,-328,-7.207031249999999E-5,34,48,77,16752680,2874,854,274,140,387,313,16777118,Tag0,unknown
1499247594253,0,-322,-7.0751953125E-5,34,48,77,16752680,2874,854,274,140,387,313,16777118,Tag0,unknown
1499247594253,0,38,8.349609375E-6,34,48,77,16752680,2874,854,274,140,387,313,16777118,Tag0,unknown
1499247594253,0,-297,-6.525878906250001E-5,34,48,77,16752680,2874,854,274,140,387,313,16777118,Tag0,unknown
1499247594254,0,-327,-7.18505859375E-5,34,48,77,16752680,2874,854,274,140,387,313,16777118,Tag0,unknown
1499247594254,0,65,1.42822265625E-5,34,48,77,16752680,2874,854,274,140,387,313,16777118,Tag0,unknown
1499247594254,0,-77,-1.69189453125E-5,34,48,77,16752680,2874,854,274,140,387,313,16777118,Tag0,unknown
1499247594255,0,117,2.5708007812499998E-5,34,48,77,16752680,2874,854,274,140,387,313,16777118,Tag0,unknown
1499247594255,0,19,4.1748046875E-6,34,48,77,16752680,2874,854,274,140,387,313,16777118,Tag0,unknown
1499247594256,0,-350,-7.6904296875E-5,34,48,77,16752680,2874,854,274,140,387,313,16777118,Tag0,unknown
1499247594256,0,-348,-7.646484375E-5,34,48,77,16752680,2874,854,274,140,387,313,16777118,Tag0,unknown
1499247594256,0,21,4.614257812500001E-6,34,48,77,16752680,2874,854,274,140,387,313,16777118,Tag0,unknown
1499247594257,0,-281,-6.17431640625E-5,34,48,77,16752680,2874,854,274,140,387,313,16777118,Tag0,unknown
1499247594257,0,-152,-3.33984375E-5,34,48,77,16752680,2874,854,274,140,387,313,16777118,Tag0,unknown
1499247594282,0,-227,-4.98779296875E-5,34,48,77,16752680,2874,854,274,140,387,313,16777118,Tag0,unknown
1499247594292,0,-136,-2.9882812500000002E-5,34,48,77,16752680,2874,854,274,140,387,313,16777118,Tag0,unknown
1499247594294,0,-357,-7.844238281250001E-5,34,48,77,16752680,2874,854,274,140,387,313,16777118,Tag0,unknown
1499247594295,0,-341,-7.492675781250002E-5,34,48,77,16752680,2874,854,274,140,387,313,16777118,Tag0,unknown
1499247594298,0,-260,-5.712890625E-5,34,48,77,16752680,2874,854,274,140,387,313,16777118,Tag0,unknown
1499247594299,0,-332,-7.294921875E-5,34,48,77,16752680,2874,854,274,140,387,313,16777118,Tag0,unknown
1499247594299,0,-198,-4.3505859375000006E-5,34,48,77,16752680,2874,854,274,140,387,313,16777118,Tag0,unknown
1499247594299,0,-381,-8.371582031250001E-5,34,48,77,16752680,2874,854,274,140,387,313,16777118,Tag0,unknown
1499247594300,0,-268,-5.8886718750000006E-5,34,48,77,16752680,2874,854,274,140,387,313,16777118,Tag0,unknown
1499247594300,0,57,1.2524414062500001E-5,34,48,77,16752680,2874,854,274,140,387,313,16777118,Tag0,unknown
1499247594300,0,118,2.5927734375E-5,34,48,77,16752680,2874,854,274,140,387,313,16777118,Tag0,unknown
1499247594301,0,-90,-1.9775390625E-5,34,48,77,16752680,2874,854,274,140,387,313,16777118,Tag0,unknown
1499247594301,0,-67,-1.4721679687500002E-5,34,48,77,16752680,2874,854,274,140,387,313,16777118,Tag0,unknown
1499247594302,0,-52,-1.142578125E-5,34,48,77,16752680,2874,854,274,140,387,313,16777118,Tag0,unknown
1499247594302,0,75,1.64794921875E-5,34,48,77,16752680,2874,854,274,140,387,313,16777118,Tag0,unknown
1499247594303,0,-381,-8.371582031250001E-5,34,48,77,16752680,2874,854,274,140,387,313,16777118,Tag0,unknown
1499247594336,0,-203,-4.460449218750001E-5,34,48,77,16752680,2874,854,274,140,387,313,16777118,Tag0,unknown
1499247594358,0,-296,-6.50390625E-5,34,48,77,16752680,2874,854,274,140,387,313,16777118,Tag0,unknown
1499247594358,0,89,1.95556640625E-5,34,48,77,16752680,2874,854,274,140,387,313,16777118,Tag0,unknown
1499247594359,0,123,2.70263671875E-5,34,48,77,16752680,2874,854,274,140,387,313,16777118,Tag0,unknown
1499247594359,0,-265,-5.82275390625E-5,34,48,77,16752680,2874,854,274,140,387,313,16777118,Tag0,unknown
1499247594360,0,-171,-3.75732421875E-5,34,48,77,16752680,2874,854,274,140,387,313,16777118,Tag0,unknown
1499247594360,0,-165,-3.62548828125E-5,34,48,77,16752680,2874,854,274,140,387,313,16777118,Tag0,unknown
1499247594360,0,-269,-5.9106445312499996E-5,34,48,77,16752680,2874,854,274,140,387,313,16777118,Tag0,unknown
1499247594361,0,-124,-2.724609375E-5,34,48,77,16752680,2874,854,274,140,387,313,16777118,Tag0,unknown
1499247594361,0,113,2.48291015625E-5,34,48,77,16752680,2874,854,274,140,387,313,16777118,Tag0,unknown
1499247594362,0,23,5.0537109375E-6,34,48,77,16752680,2874,854,274,140,387,313,16777118,Tag0,unknown
1499247594362,0,-341,-7.492675781250002E-5,34,48,77,16752680,2874,854,274,140,387,313,16777118,Tag0,unknown
1499247594363,0,-338,-7.426757812499999E-5,34,48,77,16752680,2874,854,274,140,387,313,16777118,Tag0,unknown
1499247594363,0,-323,-7.09716796875E-5,34,48,77,16752680,2874,854,274,140,387,313,16777118,Tag0,unknown
1499247594363,0,-305,-6.70166015625E-5,34,48,77,16752680,2874,854,274,140,387,313,16777118,Tag0,unknown
1499247594364,0,-327,-7.18505859375E-5,34,48,77,16752680,2874,854,274,140,387,313,16777118,Tag0,unknown
1499247594364,0,-162,-3.5595703125E-5,34,48,77,16752680,2874,854,274,140,387,313,16777118,Tag0,unknown
1499247594364,0,-153,-3.3618164062500004E-5,34,48,77,16752680,2874,854,274,140,387,313,16777118,Tag0,unknown
1499247594365,0,-193,-4.2407226562500005E-5,34,48,77,16752680,2874,854,274,140,387,313,16777118,Tag0,unknown
1499247594365,0,-211,-4.63623046875E-5,34,48,77,16752680,2874,854,274,140,387,313,16777118,Tag0,unknown
1499247594366,0,-311,-6.833496093750001E-5,34,48,77,16752680,2874,854,274,140,387,313,16777118,Tag0,unknown
1499247594366,0,-96,-2.109375E-5,34,48,77,16752680,2874,854,274,140,387,313,16777118,Tag0,unknown
1499247594367,0,-72,-1.58203125E-5,34,48,77,16752680,2874,854,274,140,387,313,16777118,Tag0,unknown
1499247594367,0,106,2.3291015625000003E-5,34,48,77,16752680,2874,854,274,140,387,313,16777118,Tag0,unknown
1499247594367,0,28,6.15234375E-6,34,48,77,16752680,2874,854,274,140,387,313,16777118,Tag0,unknown
1499247594368,0,-261,-5.73486328125E-5,34,48,77,16752680,2874,854,274,140,387,313,16777118,Tag0,unknown
1499247594368,0,64,1.40625E-5,34,48,77,16752680,2874,854,274,140,387,313,16777118,Tag0,unknown
1499247594369,0,-119,-2.6147460937500004E-5,34,48,77,16752680,2874,854,274,140,387,313,16777118,Tag0,unknown
1499247594369,0,114,2.5048828125000003E-5,34,48,77,16752680,2874,854,274,140,387,313,16777118,Tag0,unknown
1499247594371,0,-258,-5.6689453125000004E-5,34,48,77,16752680,2874,854,274,140,387,313,16777118,Tag0,unknown
1499247594371,0,-353,-7.75634765625E-5,34,48,77,16752680,2874,854,274,140,387,313,16777118,Tag0,unknown
1499247594372,0,-317,-6.96533203125E-5,34,48,77,16752680,2874,854,274,140,387,313,16777118,Tag0,unknown
1499247594376,0,26,5.712890625E-6,34,48,77,16752680,2874,854,274,140,387,313,16777118,Tag0,unknown
1499247594377,0,55,1.20849609375E-5,34,48,77,16752680,2874,854,274,140,387,313,16777118,Tag0,unknown
1499247594377,0,-373,-8.19580078125E-5,34,48,77,16752680,2874,854,274,140,387,313,16777118,Tag0,unknown
1499247594378,0,-139,-3.0541992187500004E-5,34,48,77,16752680,2874,854,274,140,387,313,16777118,Tag0,unknown
1499247594378,0,-264,-5.80078125E-5,34,48,77,16752680,2874,854,274,140,387,313,16777118,Tag0,unknown
1499247594378,0,43,9.448242187500001E-6,34,48,77,16752680,2874,854,274,140,387,313,16777118,Tag0,unknown
1499247594379,0,48,1.0546875E-5,34,48,77,16752680,2874,854,274,140,387,313,16777118,Tag0,unknown
1499247594379,0,65,1.42822265625E-5,34,48,77,16752680,2874,854,274,140,387,313,16777118,Tag0,unknown
1499247594380,0,-123,-2.70263671875E-5,34,48,77,16752680,2874,854,274,140,387,313,16777118,Tag0,unknown
1499247594380,0,-101,-2.2192382812500002E-5,34,48,77,16752680,2874,854,274,140,387,313,16777118,Tag0,unknown
1499247594382,0,-321,-7.053222656250001E-5,34,48,77,16752680,2874,854,274,140,387,313,16777118,Tag0,unknown
1499247594383,0,-246,-5.4052734375E-5,34,48,77,16752680,2874,854,274,140,387,313,16777118,Tag0,unknown
1499247594383,0,-174,-3.8232421875E-5,34,48,77,16752680,2874,854,274,140,387,313,16777118,Tag0,unknown
1499247594383,0,-281,-6.17431640625E-5,34,48,77,16752680,2874,854,274,140,387,313,16777118,Tag0,unknown
1499247594384,0,13,2.8564453125E-6,34,48,77,16752680,2874,854,274,140,387,313,16777118,Tag0,unknown
1499247594384,0,-307,-6.74560546875E-5,34,48,77,16752680,2874,854,274,140,387,313,16777118,Tag0,unknown
1499247594385,0,-324,-7.119140625E-5,34,48,77,16752680,2874,854,274,140,387,313,16777118,Tag0,unknown
1499247594386,0,-341,-7.492675781250002E-5,34,48,77,16752680,2874,854,274,140,387,313,16777118,Tag0,unknown
1499247594386,0,-327,-7.18505859375E-5,34,48,77,16752680,2874,854,274,140,387,313,16777118,Tag0,unknown
1499247594387,0,108,2.3730468750000002E-5,34,48,77,16752680,2874,854,274,140,387,313,16777118,Tag0,unknown
1499247594387,0,-23,-5.0537109375E-6,34,48,77,16752680,2874,854,274,140,387,313,16777118,Tag0,unknown
1499247594388,0,83,1.82373046875E-5,34,48,77,16752680,2874,854,274,140,387,313,16777118,Tag0,unknown
1499247594392,0,-139,-3.0541992187500004E-5,34,48,77,16752680,2874,854,274,140,387,313,16777118,Tag0,unknown
1499247594395,0,-185,-4.06494140625E-5,34,48,77,16752680,2874,854,274,140,387,313,16777118,Tag0,unknown
1499247594399,0,-133,-2.92236328125E-5,34,48,77,16752680,2874,854,274,140,387,313,16777118,Tag0,unknown
1499247594399,0,2,4.39453125E-7,34,48,77,16752680,2874,854,274,140,387,313,16777118,Tag0,unknown
1499247594400,0,112,2.4609375E-5,34,48,77,16752680,2874,854,274,140,387,313,16777118,Tag0,unknown
1499247594400,0,13,2.8564453125E-6,34,48,77,16752680,2874,854,274,140,387,313,16777118,Tag0,unknown
1499247594401,0,-266,-5.8447265625E-5,34,48,77,16752680,2874,854,274,140,387,313,16777118,Tag0,unknown
1499247594402,0,24,5.2734375E-6,34,48,77,16752680,2874,854,274,140,387,313,16777118,Tag0,unknown
1499247594402,0,38,8.349609375E-6,34,48,77,16752680,2874,854,274,140,387,313,16777118,Tag0,unknown
1499247594402,0,9,1.9775390625E-6,34,48,77,16752680,2874,854,274,140,387,313,16777118,Tag0,unknown
1499247594406,0,56,1.23046875E-5,34,48,77,16752680,2874,854,274,140,387,313,16777118,Tag0,unknown
1499247594407,0,113,2.48291015625E-5,34,48,77,16752680,2874,854,274,140,387,313,16777118,Tag0,unknown
1499247594407,0,104,2.28515625E-5,34,48,77,16752680,2874,854,274,140,387,313,16777118,Tag0,unknown
1499247594408,0,-110,-2.4169921875E-5,34,48,77,16752680,2874,854,274,140,387,313,16777118,Tag0,unknown
1499247594408,0,-52,-1.142578125E-5,34,48,77,16752680,2874,854,274,140,387,313,16777118,Tag0,unknown
1499247594409,0,-101,-2.2192382812500002E-5,34,48,77,16752680,2874,854,274,140,387,313,16777118,Tag0,unknown
1499247594409,0,38,8.349609375E-6,34,48,77,16752680,2874,854,274,140,387,313,16777118,Tag0,unknown
1499247594410,0,-166,-3.6474609375E-5,34,48,77,16752680,2874,854,274,140,387,313,16777118,Tag0,unknown
1499247594410,0,-186,-4.0869140625E-5,34,48,77,16752680,2874,854,274,140,387,313,16777118,Tag0,unknown
1499247594410,0,-291,-6.39404296875E-5,34,48,77,16752680,2874,854,274,140,387,313,16777118,Tag0,unknown
1499247594411,0,-85,-1.86767578125E-5,34,48,77,16752680,2874,854,274,140,387,313,16777118,Tag0,unknown
1499247594411,0,-4,-8.7890625E-7,34,48,77,16752680,2874,854,274,140,387,313,16777118,Tag0,unknown
1499247594412,0,267,5.86669921875E-5,34,48,77,16752680,2874,854,274,140,387,313,16777118,Tag0,unknown
1499247594412,0,-92,-2.021484375E-5,34,48,77,16752680,2874,854,274,140,387,313,16777118,Tag0,unknown
1499247594413,0,64,1.40625E-5,34,48,77,16752680,2874,854,274,140,387,313,16777118,Tag0,unknown
1499247594414,0,58,1.2744140625E-5,34,48,77,16752680,2874,854,274,140,387,313,16777118,Tag0,unknown
1499247594455,0,-322,-7.0751953125E-5,34,48,77,16752680,2874,854,274,140,387,313,16777118,Tag0,unknown
1499247594456,0,-181,-3.9770507812500004E-5,34,48,77,16752680,2874,854,274,140,387,313,16777118,Tag0,unknown
1499247594479,0,-294,-6.4599609375E-5,34,48,77,16752680,2874,854,274,140,387,313,16777118,Tag0,unknown
1499247594479,0,-63,-1.38427734375E-5,34,48,77,16752680,2874,854,274,140,387,313,16777118,Tag0,unknown
1499247594479,0,272,5.9765625000000004E-5,34,48,77,16752680,2874,854,274,140,387,313,16777118,Tag0,unknown
1499247594492,0,-60,-1.318359375E-5,34,48,77,16752680,2874,854,274,140,387,313,16777118,Tag0,unknown
1499247594492,0,39,8.5693359375E-6,34,48,77,16752680,2874,854,274,140,387,313,16777118,Tag0,unknown
1499247594494,0,-359,-7.88818359375E-5,34,48,77,16752680,2874,854,274,140,387,313,16777118,Tag0,unknown
1499247594494,0,-350,-7.6904296875E-5,34,48,77,16752680,2874,854,274,140,387,313,16777118,Tag0,unknown
1499247594495,0,-362,-7.954101562500001E-5,34,48,77,16752680,2874,854,274,140,387,313,16777118,Tag0,unknown
1499247594495,0,-275,-6.04248046875E-5,34,48,77,16752680,2874,854,274,140,387,313,16777118,Tag0,unknown
1499247594499,0,98,2.1533203125E-5,34,48,77,16752680,2874,854,274,140,387,313,16777118,Tag0,unknown
1499247594533,0,-87,-1.91162109375E-5,34,48,77,16752680,2874,854,274,140,387,313,16777118,Tag0,unknown
1499247594533,0,99,2.1752929687500003E-5,34,48,77,16752680,2874,854,274,140,387,313,16777118,Tag0,unknown
1499247594534,0,-258,-5.6689453125000004E-5,34,48,77,16752680,2874,854,274,140,387,313,16777118,Tag0,unknown
1499247594534,0,-158,-3.4716796875000005E-5,34,48,77,16752680,2874,854,274,140,387,313,16777118,Tag0,unknown
1499247594534,0,-220,-4.833984375E-5,34,48,77,16752680,2874,854,274,140,387,313,16777118,Tag0,unknown
1499247594558,0,-329,-7.229003906250001E-5,34,48,77,16752680,2874,854,274,140,387,313,16777118,Tag0,unknown
1499247594559,0,100,2.197265625E-5,34,48,77,16752680,2874,854,274,140,387,313,16777118,Tag0,unknown
