timestampMs,poorSignal,eegRawValue,eegRawValueVolts,attention,meditation,blinkStrength,delta,theta,alphaLow,alphaHigh,betaLow,betaHigh,gammaLow,gammaMid,tagEvent,location
1499247086293,0,-269,-5.9106445312499996E-5,54,75,47,2700,10807,13680,5932,4294,3037,1150,330,Tag0,unknown
1499247086295,0,-269,-5.9106445312499996E-5,54,75,47,2700,10807,13680,5932,4294,3037,1150,330,Tag0,unknown
1499247086296,0,-275,-6.04248046875E-5,54,75,47,2700,10807,13680,5932,4294,3037,1150,330,Tag0,unknown
1499247086298,0,-276,-6.064453125E-5,54,75,47,2700,10807,13680,5932,4294,3037,1150,330,Tag0,unknown
1499247086299,0,-277,-6.0864257812500005E-5,54,75,47,2700,10807,13680,5932,4294,3037,1150,330,Tag0,unknown
1499247086300,0,-277,-6.0864257812500005E-5,54,75,47,2700,10807,13680,5932,4294,3037,1150,330,Tag0,unknown
1499247086301,0,-283,-6.218261718750001E-5,54,75,47,2700,10807,13680,5932,4294,3037,1150,330,Tag0,unknown
1499247086301,0,-295,-6.48193359375E-5,54,75,47,2700,10807,13680,5932,4294,3037,1150,330,Tag0,unknown
1499247086304,0,-290,-6.3720703125E-5,54,75,47,2700,10807,13680,5932,4294,3037,1150,330,Tag0,unknown
1499247086305,0,-293,-6.43798828125E-5,54,75,47,2700,10807,13680,5932,4294,3037,1150,330,Tag0,unknown
1499247086306,0,-312,-6.85546875E-5,54,75,47,2700,10807,13680,5932,4294,3037,1150,330,Tag0,unknown
1499247086306,0,-322,-7.0751953125E-5,54,75,47,2700,10807,13680,5932,4294,3037,1150,330,Tag0,unknown
1499247086307,0,-312,-6.85546875E-5,54,75,47,2700,10807,13680,5932,4294,3037,1150,330,Tag0,unknown
1499247086307,0,-298,-6.5478515625E-5,54,75,47,2700,10807,13680,5932,4294,3037,1150,330,Tag0,unknown
1499247086308,0,-301,-6.613769531250001E-5,54,75,47,2700,10807,13680,5932,4294,3037,1150,330,Tag0,unknown
1499247086308,0,-311,-6.833496093750001E-5,54,75,47,2700,10807,13680,5932,4294,3037,1150,330,Tag0,unknown
1499247086308,0,-315,-6.92138671875E-5,54,75,47,2700,10807,13680,5932,4294,3037,1150,330,Tag0,unknown
1499247086309,0,-307,-6.74560546875E-5,54,75,47,2700,10807,13680,5932,4294,3037,1150,330,Tag0,unknown
1499247086309,0,-290,-6.3720703125E-5,54,75,47,2700,10807,13680,5932,4294,3037,1150,330,Tag0,unknown
1499247086309,0,-265,-5.82275390625E-5,54,75,47,2700,10807,13680,5932,4294,3037,1150,330,Tag0,unknown
1499247086310,0,16,3.515625E-6,54,75,47,2700,10807,13680,5932,4294,3037,1150,330,Tag0,unknown
1499247086310,0,28,6.15234375E-6,54,75,47,2700,10807,13680,5932,4294,3037,1150,330,Tag0,unknown
1499247086311,0,27,5.9326171875000005E-6,54,75,47,2700,10807,13680,5932,4294,3037,1150,330,Tag0,unknown
1499247086311,0,25,5.4931640625E-6,54,75,47,2700,10807,13680,5932,4294,3037,1150,330,Tag0,unknown
1499247086311,0,24,5.2734375E-6,54,75,47,2700,10807,13680,5932,4294,3037,1150,330,Tag0,unknown
1499247086312,0,23,5.0537109375E-6,54,75,47,2700,10807,13680,5932,4294,3037,1150,330,Tag0,unknown
1499247086312,0,23,5.0537109375E-6,54,75,47,2700,10807,13680,5932,4294,3037,1150,330,Tag0,unknown
1499247086312,0,28,6.15234375E-6,54,75,47,2700,10807,13680,5932,4294,3037,1150,330,Tag0,unknown
1499247086314,0,36,7.91015625E-6,54,75,47,2700,10807,13680,5932,4294,3037,1150,330,Tag0,unknown
1499247086315,0,40,8.7890625E-6,54,75,47,2700,10807,13680,5932,4294,3037,1150,330,Tag0,unknown
1499247086315,0,54,1.1865234375000001E-5,54,75,47,2700,10807,13680,5932,4294,3037,1150,330,Tag0,unknown
1499247086316,0,70,1.5380859375E-5,54,75,47,2700,10807,13680,5932,4294,3037,1150,330,Tag0,unknown
1499247086316,0,77,1.69189453125E-5,54,75,47,2700,10807,13680,5932,4294,3037,1150,330,Tag0,unknown
1499247086316,0,96,2.109375E-5,54,75,47,2700,10807,13680,5932,4294,3037,1150,330,Tag0,unknown
1499247086317,0,105,2.30712890625E-5,54,75,47,2700,10807,13680,5932,4294,3037,1150,330,Tag0,unknown
1499247086317,0,105,2.30712890625E-5,54,75,47,2700,10807,13680,5932,4294,3037,1150,330,Tag0,unknown
1499247086317,0,105,2.30712890625E-5,54,75,47,2700,10807,13680,5932,4294,3037,1150,330,Tag0,unknown
1499247086317,0,117,2.5708007812499998E-5,54,75,47,2700,10807,13680,5932,4294,3037,1150,330,Tag0,unknown
1499247086318,0,-117,-2.5708007812499998E-5,54,75,47,2700,10807,13680,5932,4294,3037,1150,330,Tag0,unknown
1499247086318,0,-107,-2.35107421875E-5,54,75,47,2700,10807,13680,5932,4294,3037,1150,330,Tag0,unknown
1499247086318,0,-112,-2.4609375E-5,54,75,47,2700,10807,13680,5932,4294,3037,1150,330,Tag0,unknown
1499247086319,0,-120,-2.63671875E-5,54,75,47,2700,10807,13680,5932,4294,3037,1150,330,Tag0,unknown
1499247086319,0,-125,-2.74658203125E-5,54,75,47,2700,10807,13680,5932,4294,3037,1150,330,Tag0,unknown
1499247086319,0,-126,-2.7685546875E-5,54,75,47,2700,10807,13680,5932,4294,3037,1150,330,Tag0,unknown
1499247086319,0,-118,-2.5927734375E-5,54,75,47,2700,10807,13680,5932,4294,3037,1150,330,Tag0,unknown
1499247086320,0,-110,-2.4169921875E-5,54,75,47,2700,10807,13680,5932,4294,3037,1150,330,Tag0,unknown
1499247086320,0,-109,-2.39501953125E-5,54,75,47,2700,10807,13680,5932,4294,3037,1150,330,Tag0,unknown
1499247086320,0,-117,-2.5708007812499998E-5,54,75,47,2700,10807,13680,5932,4294,3037,1150,330,Tag0,unknown
1499247086320,0,125,2.74658203125E-5,54,75,47,2700,10807,13680,5932,4294,3037,1150,330,Tag0,unknown
1499247086321,0,100,2.197265625E-5,54,75,47,2700,10807,13680,5932,4294,3037,1150,330,Tag0,unknown
1499247086321,0,84,1.8457031250000004E-5,54,75,47,2700,10807,13680,5932,4294,3037,1150,330,Tag0,unknown
1499247086321,0,87,1.91162109375E-5,54,75,47,2700,10807,13680,5932,4294,3037,1150,330,Tag0,unknown
1499247086322,0,87,1.91162109375E-5,54,75,47,2700,10807,13680,5932,4294,3037,1150,330,Tag0,unknown
1499247086322,0,91,1.99951171875E-5,54,75,47,2700,10807,13680,5932,4294,3037,1150,330,Tag0,unknown
1499247086322,0,102,2.2412109374999998E-5,54,75,47,2700,10807,13680,5932,4294,3037,1150,330,Tag0,unknown
1499247086322,0,100,2.197265625E-5,54,75,47,2700,10807,13680,5932,4294,3037,1150,330,Tag0,unknown
1499247086323,0,101,2.2192382812500002E-5,54,75,47,2700,10807,13680,5932,4294,3037,1150,330,Tag0,unknown
1499247086323,0,115,2.52685546875E-5,54,75,47,2700,10807,13680,5932,4294,3037,1150,330,Tag0,unknown
1499247086323,0,-128,-2.8125E-5,54,75,47,2700,10807,13680,5932,4294,3037,1150,330,Tag0,unknown
1499247086324,0,-121,-2.6586914062500003E-5,54,75,47,2700,10807,13680,5932,4294,3037,1150,330,Tag0,unknown
1499247086324,0,124,2.724609375E-5,54,75,47,2700,10807,13680,5932,4294,3037,1150,330,Tag0,unknown
1499247086324,0,99,2.1752929687500003E-5,54,75,47,2700,10807,13680,5932,4294,3037,1150,330,Tag0,unknown
1499247086324,0,83,1.82373046875E-5,54,75,47,2700,10807,13680,5932,4294,3037,1150,330,Tag0,unknown
1499247086325,0,82,1.8017578124999998E-5,54,75,47,2700,10807,13680,5932,4294,3037,1150,330,Tag0,unknown
1499247086325,0,84,1.8457031250000004E-5,54,75,47,2700,10807,13680,5932,4294,3037,1150,330,Tag0,unknown
1499247086326,0,70,1.5380859375E-5,54,75,47,2700,10807,13680,5932,4294,3037,1150,330,Tag0,unknown
1499247086326,0,50,1.0986328125E-5,54,75,47,2700,10807,13680,5932,4294,3037,1150,330,Tag0,unknown
1499247086326,0,45,9.8876953125E-6,54,75,47,2700,10807,13680,5932,4294,3037,1150,330,Tag0,unknown
1499247086327,0,45,9.8876953125E-6,54,75,47,2700,10807,13680,5932,4294,3037,1150,330,Tag0,unknown
1499247086327,0,55,1.20849609375E-5,54,75,47,2700,10807,13680,5932,4294,3037,1150,330,Tag0,unknown
1499247086327,0,75,1.64794921875E-5,54,75,47,2700,10807,13680,5932,4294,3037,1150,330,Tag0,unknown
1499247086327,0,88,1.93359375E-5,54,75,47,2700,10807,13680,5932,4294,3037,1150,330,Tag0,unknown
1499247086328,0,76,1.669921875E-5,54,75,47,2700,10807,13680,5932,4294,3037,1150,330,Tag0,unknown
1499247086328,0,56,1.23046875E-5,54,75,47,2700,10807,13680,5932,4294,3037,1150,330,Tag0,unknown
1499247086328,0,41,9.008789062499999E-6,54,75,47,2700,10807,13680,5932,4294,3037,1150,330,Tag0,unknown
1499247086329,0,36,7.91015625E-6,54,75,47,2700,10807,13680,5932,4294,3037,1150,330,Tag0,unknown
1499247086329,0,35,7.6904296875E-6,54,75,47,2700,10807,13680,5932,4294,3037,1150,330,Tag0,unknown
1499247086329,0,39,8.5693359375E-6,54,75,47,2700,10807,13680,5932,4294,3037,1150,330,Tag0,unknown
1499247086329,0,56,1.23046875E-5,54,75,47,2700,10807,13680,5932,4294,3037,1150,330,Tag0,unknown
1499247086330,0,73,1.6040039062500002E-5,54,75,47,2700,10807,13680,5932,4294,3037,1150,330,Tag0,unknown
1499247086330,0,80,1.7578125E-5,54,75,47,2700,10807,13680,5932,4294,3037,1150,330,Tag0,unknown
1499247086330,0,75,1.64794921875E-5,54,75,47,2700,10807,13680,5932,4294,3037,1150,330,Tag0,unknown
1499247086331,0,72,1.58203125E-5,54,75,47,2700,10807,13680,5932,4294,3037,1150,330,Tag0,unknown
1499247086331,0,76,1.669921875E-5,54,75,47,2700,10807,13680,5932,4294,3037,1150,330,Tag0,unknown
1499247086331,0,97,2.13134765625E-5,54,75,47,2700,10807,13680,5932,4294,3037,1150,330,Tag0,unknown
1499247086332,0,119,2.6147460937500004E-5,54,75,47,2700,10807,13680,5932,4294,3037,1150,330,Tag0,unknown
1499247086332,0,-117,-2.5708007812499998E-5,54,75,47,2700,10807,13680,5932,4294,3037,1150,330,Tag0,unknown
1499247086332,0,-120,-2.63671875E-5,54,75,47,2700,10807,13680,5932,4294,3037,1150,330,Tag0,unknown
1499247086332,0,123,2.70263671875E-5,54,75,47,2700,10807,13680,5932,4294,3037,1150,330,Tag0,unknown
1499247086333,0,121,2.6586914062500003E-5,54,75,47,2700,10807,13680,5932,4294,3037,1150,330,Tag0,unknown
1499247086333,0,120,2.63671875E-5,54,75,47,2700,10807,13680,5932,4294,3037,1150,330,Tag0,unknown
1499247086333,0,123,2.70263671875E-5,54,75,47,2700,10807,13680,5932,4294,3037,1150,330,Tag0,unknown
1499247086334,0,121,2.6586914062500003E-5,54,75,47,2700,10807,13680,5932,4294,3037,1150,330,Tag0,unknown
1499247086334,0,107,2.35107421875E-5,54,75,47,2700,10807,13680,5932,4294,3037,1150,330,Tag0,unknown
1499247086334,0,100,2.197265625E-5,54,75,47,2700,10807,13680,5932,4294,3037,1150,330,Tag0,unknown
1499247086334,0,109,2.39501953125E-5,54,75,47,2700,10807,13680,5932,4294,3037,1150,330,Tag0,unknown
1499247086335,0,119,2.6147460937500004E-5,54,75,47,2700,10807,13680,5932,4294,3037,1150,330,Tag0,unknown
1499247086335,0,123,2.70263671875E-5,54,75,47,2700,10807,13680,5932,4294,3037,1150,330,Tag0,unknown
1499247086335,0,-122,-2.6806640625E-5,54,75,47,2700,10807,13680,5932,4294,3037,1150,330,Tag0,unknown
1499247086337,0,-112,-2.4609375E-5,54,75,47,2700,10807,13680,5932,4294,3037,1150,330,Tag0,unknown
1499247086337,0,-117,-2.5708007812499998E-5,54,75,47,2700,10807,13680,5932,4294,3037,1150,330,Tag0,unknown
1499247086338,0,-123,-2.70263671875E-5,54,75,47,2700,10807,13680,5932,4294,3037,1150,330,Tag0,unknown
1499247086338,0,-126,-2.7685546875E-5,54,75,47,2700,10807,13680,5932,4294,3037,1150,330,Tag0,unknown
1499247086339,0,-126,-2.7685546875E-5,54,75,47,2700,10807,13680,5932,4294,3037,1150,330,Tag0,unknown
1499247086339,0,-123,-2.70263671875E-5,54,75,47,2700,10807,13680,5932,4294,3037,1150,330,Tag0,unknown
1499247086339,0,-122,-2.6806640625E-5,54,75,47,2700,10807,13680,5932,4294,3037,1150,330,Tag0,unknown
1499247086340,0,125,2.74658203125E-5,54,75,47,2700,10807,13680,5932,4294,3037,1150,330,Tag0,unknown
1499247086340,0,119,2.6147460937500004E-5,54,75,47,2700,10807,13680,5932,4294,3037,1150,330,Tag0,unknown
1499247086340,0,114,2.5048828125000003E-5,54,75,47,2700,10807,13680,5932,4294,3037,1150,330,Tag0,unknown
1499247086341,0,115,2.52685546875E-5,54,75,47,2700,10807,13680,5932,4294,3037,1150,330,Tag0,unknown
1499247086341,0,119,2.6147460937500004E-5,54,75,47,2700,10807,13680,5932,4294,3037,1150,330,Tag0,unknown
1499247086341,0,99,2.1752929687500003E-5,54,75,47,2700,10807,13680,5932,4294,3037,1150,330,Tag0,unknown
1499247086341,0,68,1.4941406250000001E-5,54,75,47,2700,10807,13680,5932,4294,3037,1150,330,Tag0,unknown
1499247086343,0,52,1.142578125E-5,54,75,47,2700,10807,13680,5932,4294,3037,1150,330,Tag0,unknown
1499247086343,0,43,9.448242187500001E-6,54,75,47,2700,10807,13680,5932,4294,3037,1150,330,Tag0,unknown
1499247086344,0,38,8.349609375E-6,54,75,47,2700,10807,13680,5932,4294,3037,1150,330,Tag0,unknown
1499247086345,0,34,7.4707031250000005E-6,54,75,47,2700,10807,13680,5932,4294,3037,1150,330,Tag0,unknown
1499247086345,0,19,4.1748046875E-6,54,75,47,2700,10807,13680,5932,4294,3037,1150,330,Tag0,unknown
1499247086346,0,4,8.7890625E-7,54,75,47,2700,10807,13680,5932,4294,3037,1150,330,Tag0,unknown
1499247086346,0,-264,-5.80078125E-5,54,75,47,2700,10807,13680,5932,4294,3037,1150,330,Tag0,unknown
1499247086346,0,-259,-5.69091796875E-5,54,75,47,2700,10807,13680,5932,4294,3037,1150,330,Tag0,unknown
1499247086346,0,1,2.197265625E-7,54,75,47,2700,10807,13680,5932,4294,3037,1150,330,Tag0,unknown
1499247086347,0,-275,-6.04248046875E-5,54,75,47,2700,10807,13680,5932,4294,3037,1150,330,Tag0,unknown
1499247086347,0,-279,-6.13037109375E-5,54,75,47,2700,10807,13680,5932,4294,3037,1150,330,Tag0,unknown
1499247086347,0,-258,-5.6689453125000004E-5,54,75,47,2700,10807,13680,5932,4294,3037,1150,330,Tag0,unknown
1499247086347,0,35,7.6904296875E-6,54,75,47,2700,10807,13680,5932,4294,3037,1150,330,Tag0,unknown
1499247086347,0,66,1.4501953125E-5,54,75,47,2700,10807,13680,5932,4294,3037,1150,330,Tag0,unknown
1499247086348,0,80,1.7578125E-5,54,75,47,2700,10807,13680,5932,4294,3037,1150,330,Tag0,unknown
1499247086348,0,72,1.58203125E-5,54,75,47,2700,10807,13680,5932,4294,3037,1150,330,Tag0,unknown
1499247086348,0,68,1.4941406250000001E-5,54,75,47,2700,10807,13680,5932,4294,3037,1150,330,Tag0,unknown
1499247086348,0,81,1.77978515625E-5,54,75,47,2700,10807,13680,5932,4294,3037,1150,330,Tag0,unknown
1499247086348,0,108,2.3730468750000002E-5,54,75,47,2700,10807,13680,5932,4294,3037,1150,330,Tag0,unknown
1499247086349,0,-124,-2.724609375E-5,54,75,47,2700,10807,13680,5932,4294,3037,1150,330,Tag0,unknown
1499247086349,0,-125,-2.74658203125E-5,54,75,47,2700,10807,13680,5932,4294,3037,1150,330,Tag0,unknown
1499247086349,0,119,2.6147460937500004E-5,54,75,47,2700,10807,13680,5932,4294,3037,1150,330,Tag0,unknown
1499247086349,0,117,2.5708007812499998E-5,54,75,47,2700,10807,13680,5932,4294,3037,1150,330,Tag0,unknown
1499247086349,0,119,2.6147460937500004E-5,54,75,47,2700,10807,13680,5932,4294,3037,1150,330,Tag0,unknown
1499247086350,0,115,2.52685546875E-5,54,75,47,2700,10807,13680,5932,4294,3037,1150,330,Tag0,unknown
1499247086350,0,106,2.3291015625000003E-5,54,75,47,2700,10807,13680,5932,4294,3037,1150,330,Tag0,unknown
1499247086350,0,102,2.2412109374999998E-5,54,75,47,2700,10807,13680,5932,4294,3037,1150,330,Tag0,unknown
1499247086350,0,112,2.4609375E-5,54,75,47,2700,10807,13680,5932,4294,3037,1150,330,Tag0,unknown
1499247086350,0,-122,-2.6806640625E-5,54,75,47,2700,10807,13680,5932,4294,3037,1150,330,Tag0,unknown
1499247086351,0,-116,-2.548828125E-5,54,75,47,2700,10807,13680,5932,4294,3037,1150,330,Tag0,unknown
1499247086351,0,-117,-2.5708007812499998E-5,54,75,47,2700,10807,13680,5932,4294,3037,1150,330,Tag0,unknown
1499247086351,0,-117,-2.5708007812499998E-5,54,75,47,2700,10807,13680,5932,4294,3037,1150,330,Tag0,unknown
1499247086351,0,-116,-2.548828125E-5,54,75,47,2700,10807,13680,5932,4294,3037,1150,330,Tag0,unknown
1499247086351,0,-127,-2.79052734375E-5,54,75,47,2700,10807,13680,5932,4294,3037,1150,330,Tag0,unknown
1499247086352,0,108,2.3730468750000002E-5,54,75,47,2700,10807,13680,5932,4294,3037,1150,330,Tag0,unknown
1499247086352,0,99,2.1752929687500003E-5,54,75,47,2700,10807,13680,5932,4294,3037,1150,330,Tag0,unknown
1499247086352,0,97,2.13134765625E-5,54,75,47,2700,10807,13680,5932,4294,3037,1150,330,Tag0,unknown
1499247086352,0,102,2.2412109374999998E-5,54,75,47,2700,10807,13680,5932,4294,3037,1150,330,Tag0,unknown
1499247086352,0,115,2.52685546875E-5,54,75,47,2700,10807,13680,5932,4294,3037,1150,330,Tag0,unknown
1499247086353,0,107,2.35107421875E-5,54,75,47,2700,10807,13680,5932,4294,3037,1150,330,Tag0,unknown
1499247086353,0,81,1.77978515625E-5,54,75,47,2700,10807,13680,5932,4294,3037,1150,330,Tag0,unknown
1499247086353,0,53,1.1645507812500002E-5,54,75,47,2700,10807,13680,5932,4294,3037,1150,330,Tag0,unknown
1499247086353,0,50,1.0986328125E-5,54,75,47,2700,10807,13680,5932,4294,3037,1150,330,Tag0,unknown
1499247086353,0,68,1.4941406250000001E-5,54,75,47,2700,10807,13680,5932,4294,3037,1150,330,Tag0,unknown
1499247086354,0,83,1.82373046875E-5,54,75,47,2700,10807,13680,5932,4294,3037,1150,330,Tag0,unknown
1499247086354,0,84,1.8457031250000004E-5,54,75,47,2700,10807,13680,5932,4294,3037,1150,330,Tag0,unknown
1499247086354,0,73,1.6040039062500002E-5,54,75,47,2700,10807,13680,5932,4294,3037,1150,330,Tag0,unknown
1499247086354,0,65,1.42822265625E-5,54,75,47,2700,10807,13680,5932,4294,3037,1150,330,Tag0,unknown
1499247086355,0,59,1.29638671875E-5,54,75,47,2700,10807,13680,5932,4294,3037,1150,330,Tag0,unknown
1499247086355,0,54,1.1865234375000001E-5,54,75,47,2700,10807,13680,5932,4294,3037,1150,330,Tag0,unknown
1499247086355,0,54,1.1865234375000001E-5,54,75,47,2700,10807,13680,5932,4294,3037,1150,330,Tag0,unknown
1499247086357,0,60,1.318359375E-5,54,75,47,2700,10807,13680,5932,4294,3037,1150,330,Tag0,unknown
1499247086357,0,68,1.4941406250000001E-5,54,75,47,2700,10807,13680,5932,4294,3037,1150,330,Tag0,unknown
1499247086358,0,71,1.56005859375E-5,54,75,47,2700,10807,13680,5932,4294,3037,1150,330,Tag0,unknown
1499247086358,0,70,1.5380859375E-5,54,75,47,2700,10807,13680,5932,4294,3037,1150,330,Tag0,unknown
1499247086358,0,59,1.29638671875E-5,54,75,47,2700,10807,13680,5932,4294,3037,1150,330,Tag0,unknown
1499247086358,0,45,9.8876953125E-6,54,75,47,2700,10807,13680,5932,4294,3037,1150,330,Tag0,unknown
1499247086358,0,40,8.7890625E-6,54,75,47,2700,10807,13680,5932,4294,3037,1150,330,Tag0,unknown
1499247086358,0,52,1.142578125E-5,54,75,47,2700,10807,13680,5932,4294,3037,1150,330,Tag0,unknown
1499247086359,0,67,1.4721679687500002E-5,54,75,47,2700,10807,13680,5932,4294,3037,1150,330,Tag0,unknown
1499247086359,0,69,1.51611328125E-5,54,75,47,2700,10807,13680,5932,4294,3037,1150,330,Tag0,unknown
1499247086359,0,74,1.6259765625E-5,54,75,47,2700,10807,13680,5932,4294,3037,1150,330,Tag0,unknown
1499247086359,0,76,1.669921875E-5,54,75,47,2700,10807,13680,5932,4294,3037,1150,330,Tag0,unknown
1499247086359,0,81,1.77978515625E-5,54,75,47,2700,10807,13680,5932,4294,3037,1150,330,Tag0,unknown
1499247086359,0,81,1.77978515625E-5,54,75,47,2700,10807,13680,5932,4294,3037,1150,330,Tag0,unknown
1499247086360,0,75,1.64794921875E-5,54,75,47,2700,10807,13680,5932,4294,3037,1150,330,Tag0,unknown
1499247086360,0,75,1.64794921875E-5,54,75,47,2700,10807,13680,5932,4294,3037,1150,330,Tag0,unknown
1499247086360,0,80,1.7578125E-5,54,75,47,2700,10807,13680,5932,4294,3037,1150,330,Tag0,unknown
1499247086360,0,87,1.91162109375E-5,54,75,47,2700,10807,13680,5932,4294,3037,1150,330,Tag0,unknown
1499247086360,0,91,1.99951171875E-5,54,75,47,2700,10807,13680,5932,4294,3037,1150,330,Tag0,unknown
1499247086360,0,84,1.8457031250000004E-5,54,75,47,2700,10807,13680,5932,4294,3037,1150,330,Tag0,unknown
1499247086361,0,72,1.58203125E-5,54,75,47,2700,10807,13680,5932,4294,3037,1150,330,Tag0,unknown
1499247086361,0,85,1.86767578125E-5,54,75,47,2700,10807,13680,5932,4294,3037,1150,330,Tag0,unknown
1499247086361,0,123,2.70263671875E-5,54,75,47,2700,10807,13680,5932,4294,3037,1150,330,Tag0,unknown
1499247086361,0,-102,-2.2412109374999998E-5,54,75,47,2700,10807,13680,5932,4294,3037,1150,330,Tag0,unknown
1499247086361,0,-100,-2.197265625E-5,54,75,47,2700,10807,13680,5932,4294,3037,1150,330,Tag0,unknown
1499247086361,0,-104,-2.28515625E-5,54,75,47,2700,10807,13680,5932,4294,3037,1150,330,Tag0,unknown
1499247086362,0,-100,-2.197265625E-5,54,75,47,2700,10807,13680,5932,4294,3037,1150,330,Tag0,unknown
1499247086362,0,-89,-1.95556640625E-5,54,75,47,2700,10807,13680,5932,4294,3037,1150,330,Tag0,unknown
1499247086362,0,-72,-1.58203125E-5,54,75,47,2700,10807,13680,5932,4294,3037,1150,330,Tag0,unknown
1499247086362,0,-60,-1.318359375E-5,54,75,47,2700,10807,13680,5932,4294,3037,1150,330,Tag0,unknown
1499247086362,0,-62,-1.3623046875E-5,54,75,47,2700,10807,13680,5932,4294,3037,1150,330,Tag0,unknown
1499247086362,0,-73,-1.6040039062500002E-5,54,75,47,2700,10807,13680,5932,4294,3037,1150,330,Tag0,unknown
1499247086363,0,-80,-1.7578125E-5,54,75,47,2700,10807,13680,5932,4294,3037,1150,330,Tag0,unknown
1499247086363,0,-86,-1.8896484375000003E-5,54,75,47,2700,10807,13680,5932,4294,3037,1150,330,Tag0,unknown
1499247086363,0,-72,-1.58203125E-5,54,75,47,2700,10807,13680,5932,4294,3037,1150,330,Tag0,unknown
1499247086363,0,-48,-1.0546875E-5,54,75,47,2700,10807,13680,5932,4294,3037,1150,330,Tag0,unknown
1499247086363,0,-43,-9.448242187500001E-6,54,75,47,2700,10807,13680,5932,4294,3037,1150,330,Tag0,unknown
1499247086363,0,-59,-1.29638671875E-5,54,75,47,2700,10807,13680,5932,4294,3037,1150,330,Tag0,unknown
1499247086364,0,-71,-1.56005859375E-5,54,75,47,2700,10807,13680,5932,4294,3037,1150,330,Tag0,unknown
1499247086364,0,-64,-1.40625E-5,54,75,47,2700,10807,13680,5932,4294,3037,1150,330,Tag0,unknown
1499247086364,0,-52,-1.142578125E-5,54,75,47,2700,10807,13680,5932,4294,3037,1150,330,Tag0,unknown
1499247086364,0,-52,-1.142578125E-5,54,75,47,2700,10807,13680,5932,4294,3037,1150,330,Tag0,unknown
1499247086364,0,-61,-1.34033203125E-5,54,75,47,2700,10807,13680,5932,4294,3037,1150,330,Tag0,unknown
1499247086364,0,-72,-1.58203125E-5,54,75,47,2700,10807,13680,5932,4294,3037,1150,330,Tag0,unknown
1499247086365,0,-61,-1.34033203125E-5,54,75,47,2700,10807,13680,5932,4294,3037,1150,330,Tag0,unknown
1499247086365,0,-55,-1.20849609375E-5,54,75,47,2700,10807,13680,5932,4294,3037,1150,330,Tag0,unknown
1499247086365,0,-72,-1.58203125E-5,54,75,47,2700,10807,13680,5932,4294,3037,1150,330,Tag0,unknown
1499247086365,0,-96,-2.109375E-5,54,75,47,2700,10807,13680,5932,4294,3037,1150,330,Tag0,unknown
1499247086366,0,-117,-2.5708007812499998E-5,54,75,47,2700,10807,13680,5932,4294,3037,1150,330,Tag0,unknown
1499247086366,0,-117,-2.5708007812499998E-5,54,75,47,2700,10807,13680,5932,4294,3037,1150,330,Tag0,unknown
1499247086366,0,-116,-2.548828125E-5,54,75,47,2700,10807,13680,5932,4294,3037,1150,330,Tag0,unknown
1499247086366,0,-122,-2.6806640625E-5,54,75,47,2700,10807,13680,5932,4294,3037,1150,330,Tag0,unknown
1499247086367,0,119,2.6147460937500004E-5,54,75,47,2700,10807,13680,5932,4294,3037,1150,330,Tag0,unknown
1499247086367,0,92,2.021484375E-5,54,75,47,2700,10807,13680,5932,4294,3037,1150,330,Tag0,unknown
1499247086367,0,68,1.4941406250000001E-5,54,75,47,2700,10807,13680,5932,4294,3037,1150,330,Tag0,unknown
1499247086367,0,48,1.0546875E-5,54,75,47,2700,10807,13680,5932,4294,3037,1150,330,Tag0,unknown
1499247086367,0,43,9.448242187500001E-6,54,75,47,2700,10807,13680,5932,4294,3037,1150,330,Tag0,unknown
1499247086368,0,48,1.0546875E-5,54,75,47,2700,10807,13680,5932,4294,3037,1150,330,Tag0,unknown
1499247086368,0,52,1.142578125E-5,54,75,47,2700,10807,13680,5932,4294,3037,1150,330,Tag0,unknown
1499247086368,0,58,1.2744140625E-5,54,75,47,2700,10807,13680,5932,4294,3037,1150,330,Tag0,unknown
1499247086368,0,60,1.318359375E-5,54,75,47,2700,10807,13680,5932,4294,3037,1150,330,Tag0,unknown
1499247086368,0,60,1.318359375E-5,54,75,47,2700,10807,13680,5932,4294,3037,1150,330,Tag0,unknown
1499247086369,0,56,1.23046875E-5,54,75,47,2700,10807,13680,5932,4294,3037,1150,330,Tag0,unknown
1499247086369,0,38,8.349609375E-6,54,75,47,2700,10807,13680,5932,4294,3037,1150,330,Tag0,unknown
1499247086369,0,25,5.4931640625E-6,54,75,47,2700,10807,13680,5932,4294,3037,1150,330,Tag0,unknown
1499247086369,0,23,5.0537109375E-6,54,75,47,2700,10807,13680,5932,4294,3037,1150,330,Tag0,unknown
1499247086369,0,25,5.4931640625E-6,54,75,47,2700,10807,13680,5932,4294,3037,1150,330,Tag0,unknown
1499247086369,0,42,9.228515625000002E-6,54,75,47,2700,10807,13680,5932,4294,3037,1150,330,Tag0,unknown
1499247086370,0,53,1.1645507812500002E-5,54,75,47,2700,10807,13680,5932,4294,3037,1150,330,Tag0,unknown
1499247086370,0,41,9.008789062499999E-6,54,75,47,2700,10807,13680,5932,4294,3037,1150,330,Tag0,unknown
1499247086370,0,22,4.833984375E-6,54,75,47,2700,10807,13680,5932,4294,3037,1150,330,Tag0,unknown
1499247086370,0,19,4.1748046875E-6,54,75,47,2700,10807,13680,5932,4294,3037,1150,330,Tag0,unknown
1499247086370,0,32,7.03125E-6,54,75,47,2700,10807,13680,5932,4294,3037,1150,330,Tag0,unknown
1499247086371,0,38,8.349609375E-6,54,75,47,2700,10807,13680,5932,4294,3037,1150,330,Tag0,unknown
1499247086371,0,53,1.1645507812500002E-5,54,75,47,2700,10807,13680,5932,4294,3037,1150,330,Tag0,unknown
1499247086371,0,68,1.4941406250000001E-5,54,75,47,2700,10807,13680,5932,4294,3037,1150,330,Tag0,unknown
1499247086371,0,65,1.42822265625E-5,54,75,47,2700,10807,13680,5932,4294,3037,1150,330,Tag0,unknown
1499247086371,0,53,1.1645507812500002E-5,54,75,47,2700,10807,13680,5932,4294,3037,1150,330,Tag0,unknown
1499247086371,0,42,9.228515625000002E-6,54,75,47,2700,10807,13680,5932,4294,3037,1150,330,Tag0,unknown
1499247086372,0,27,5.9326171875000005E-6,54,75,47,2700,10807,13680,5932,4294,3037,1150,330,Tag0,unknown
1499247086372,0,13,2.8564453125E-6,54,75,47,2700,10807,13680,5932,4294,3037,1150,330,Tag0,unknown
1499247086372,0,18,3.955078125E-6,54,75,47,2700,10807,13680,5932,4294,3037,1150,330,Tag0,unknown
1499247086372,0,35,7.6904296875E-6,54,75,47,2700,10807,13680,5932,4294,3037,1150,330,Tag0,unknown
1499247086373,0,44,9.66796875E-6,54,75,47,2700,10807,13680,5932,4294,3037,1150,330,Tag0,unknown
1499247086373,0,52,1.142578125E-5,54,75,47,2700,10807,13680,5932,4294,3037,1150,330,Tag0,unknown
1499247086373,0,58,1.2744140625E-5,54,75,47,2700,10807,13680,5932,4294,3037,1150,330,Tag0,unknown
1499247086373,0,51,1.1206054687499999E-5,54,75,47,2700,10807,13680,5932,4294,3037,1150,330,Tag0,unknown
1499247086373,0,38,8.349609375E-6,54,75,47,2700,10807,13680,5932,4294,3037,1150,330,Tag0,unknown
1499247086374,0,44,9.66796875E-6,54,75,47,2700,10807,13680,5932,4294,3037,1150,330,Tag0,unknown
1499247086374,0,48,1.0546875E-5,54,75,47,2700,10807,13680,5932,4294,3037,1150,330,Tag0,unknown
1499247086374,0,35,7.6904296875E-6,54,75,47,2700,10807,13680,5932,4294,3037,1150,330,Tag0,unknown
1499247086374,0,28,6.15234375E-6,54,75,47,2700,10807,13680,5932,4294,3037,1150,330,Tag0,unknown
1499247086374,0,36,7.91015625E-6,54,75,47,2700,10807,13680,5932,4294,3037,1150,330,Tag0,unknown
1499247086374,0,40,8.7890625E-6,54,75,47,2700,10807,13680,5932,4294,3037,1150,330,Tag0,unknown
1499247086375,0,40,8.7890625E-6,54,75,47,2700,10807,13680,5932,4294,3037,1150,330,Tag0,unknown
1499247086375,0,35,7.6904296875E-6,54,75,47,2700,10807,13680,5932,4294,3037,1150,330,Tag0,unknown
1499247086375,0,23,5.0537109375E-6,54,75,47,2700,10807,13680,5932,4294,3037,1150,330,Tag0,unknown
1499247086375,0,11,2.4169921875E-6,54,75,47,2700,10807,13680,5932,4294,3037,1150,330,Tag0,unknown
1499247086375,0,5,1.0986328125E-6,54,75,47,2700,10807,13680,5932,4294,3037,1150,330,Tag0,unknown
1499247086376,0,6,1.318359375E-6,54,75,47,2700,10807,13680,5932,4294,3037,1150,330,Tag0,unknown
1499247086376,0,18,3.955078125E-6,54,75,47,2700,10807,13680,5932,4294,3037,1150,330,Tag0,unknown
1499247086376,0,19,4.1748046875E-6,54,75,47,2700,10807,13680,5932,4294,3037,1150,330,Tag0,unknown
1499247086376,0,7,1.5380859375E-6,54,75,47,2700,10807,13680,5932,4294,3037,1150,330,Tag0,unknown
1499247086377,0,11,2.4169921875E-6,54,75,47,2700,10807,13680,5932,4294,3037,1150,330,Tag0,unknown
1499247086377,0,27,5.9326171875000005E-6,54,75,47,2700,10807,13680,5932,4294,3037,1150,330,Tag0,unknown
1499247086377,0,33,7.2509765625E-6,54,75,47,2700,10807,13680,5932,4294,3037,1150,330,Tag0,unknown
1499247086377,0,23,5.0537109375E-6,54,75,47,2700,10807,13680,5932,4294,3037,1150,330,Tag0,unknown
1499247086377,0,12,2.63671875E-6,54,75,47,2700,10807,13680,5932,4294,3037,1150,330,Tag0,unknown
1499247086377,0,17,3.7353515625000003E-6,54,75,47,2700,10807,13680,5932,4294,3037,1150,330,Tag0,unknown
1499247086377,0,25,5.4931640625E-6,54,75,47,2700,10807,13680,5932,4294,3037,1150,330,Tag0,unknown
1499247086378,0,27,5.9326171875000005E-6,54,75,47,2700,10807,13680,5932,4294,3037,1150,330,Tag0,unknown
1499247086378,0,27,5.9326171875000005E-6,54,75,47,2700,10807,13680,5932,4294,3037,1150,330,Tag0,unknown
1499247086378,0,35,7.6904296875E-6,54,75,47,2700,10807,13680,5932,4294,3037,1150,330,Tag0,unknown
1499247086378,0,32,7.03125E-6,54,75,47,2700,10807,13680,5932,4294,3037,1150,330,Tag0,unknown
1499247086378,0,22,4.833984375E-6,54,75,47,2700,10807,13680,5932,4294,3037,1150,330,Tag0,unknown
1499247086378,0,34,7.4707031250000005E-6,54,75,47,2700,10807,13680,5932,4294,3037,1150,330,Tag0,unknown
1499247086379,0,53,1.1645507812500002E-5,54,75,47,2700,10807,13680,5932,4294,3037,1150,330,Tag0,unknown
1499247086379,0,50,1.0986328125E-5,54,75,47,2700,10807,13680,5932,4294,3037,1150,330,Tag0,unknown
1499247086379,0,24,5.2734375E-6,54,75,47,2700,10807,13680,5932,4294,3037,1150,330,Tag0,unknown
1499247086379,0,12,2.63671875E-6,54,75,47,2700,10807,13680,5932,4294,3037,1150,330,Tag0,unknown
1499247086379,0,35,7.6904296875E-6,54,75,47,2700,10807,13680,5932,4294,3037,1150,330,Tag0,unknown
1499247086379,0,83,1.82373046875E-5,54,75,47,2700,10807,13680,5932,4294,3037,1150,330,Tag0,unknown
1499247086380,0,124,2.724609375E-5,54,75,47,2700,10807,13680,5932,4294,3037,1150,330,Tag0,unknown
1499247086380,0,-119,-2.6147460937500004E-5,54,75,47,2700,10807,13680,5932,4294,3037,1150,330,Tag0,unknown
1499247086380,0,-125,-2.74658203125E-5,54,75,47,2700,10807,13680,5932,4294,3037,1150,330,Tag0,unknown
1499247086380,0,-118,-2.5927734375E-5,54,75,47,2700,10807,13680,5932,4294,3037,1150,330,Tag0,unknown
1499247086380,0,-78,-1.7138671875E-5,54,75,47,2700,10807,13680,5932,4294,3037,1150,330,Tag0,unknown
1499247086380,0,-37,-8.1298828125E-6,54,75,47,2700,10807,13680,5932,4294,3037,1150,330,Tag0,unknown
1499247086380,0,-24,-5.2734375E-6,54,75,47,2700,10807,13680,5932,4294,3037,1150,330,Tag0,unknown
1499247086381,0,-25,-5.4931640625E-6,54,75,47,2700,10807,13680,5932,4294,3037,1150,330,Tag0,unknown
1499247086381,0,-8,-1.7578125E-6,54,75,47,2700,10807,13680,5932,4294,3037,1150,330,Tag0,unknown
1499247086381,0,273,5.998535156250001E-5,54,75,47,2700,10807,13680,5932,4294,3037,1150,330,Tag0,unknown
1499247086381,0,279,6.13037109375E-5,54,75,47,2700,10807,13680,5932,4294,3037,1150,330,Tag0,unknown
1499247086381,0,274,6.0205078124999997E-5,54,75,47,2700,10807,13680,5932,4294,3037,1150,330,Tag0,unknown
1499247086381,0,272,5.9765625000000004E-5,54,75,47,2700,10807,13680,5932,4294,3037,1150,330,Tag0,unknown
1499247086382,0,268,5.8886718750000006E-5,54,75,47,2700,10807,13680,5932,4294,3037,1150,330,Tag0,unknown
1499247086382,0,273,5.998535156250001E-5,54,75,47,2700,10807,13680,5932,4294,3037,1150,330,Tag0,unknown
1499247086388,0,275,6.04248046875E-5,54,75,47,2700,10807,13680,5932,4294,3037,1150,330,Tag0,unknown
1499247086388,0,268,5.8886718750000006E-5,54,75,47,2700,10807,13680,5932,4294,3037,1150,330,Tag0,unknown
1499247086389,0,256,5.625E-5,54,75,47,2700,10807,13680,5932,4294,3037,1150,330,Tag0,unknown
1499247086389,0,-7,-1.5380859375E-6,54,75,47,2700,10807,13680,5932,4294,3037,1150,330,Tag0,unknown
1499247086389,0,257,5.64697265625E-5,54,75,47,2700,10807,13680,5932,4294,3037,1150,330,Tag0,unknown
1499247086389,0,256,5.625E-5,54,75,47,2700,10807,13680,5932,4294,3037,1150,330,Tag0,unknown
1499247086389,0,-22,-4.833984375E-6,54,75,47,2700,10807,13680,5932,4294,3037,1150,330,Tag0,unknown
1499247086389,0,-44,-9.66796875E-6,54,75,47,2700,10807,13680,5932,4294,3037,1150,330,Tag0,unknown
1499247086390,0,-56,-1.23046875E-5,54,75,47,2700,10807,13680,5932,4294,3037,1150,330,Tag0,unknown
1499247086390,0,-60,-1.318359375E-5,54,75,47,2700,10807,13680,5932,4294,3037,1150,330,Tag0,unknown
1499247086390,0,-70,-1.5380859375E-5,54,75,47,2700,10807,13680,5932,4294,3037,1150,330,Tag0,unknown
1499247086390,0,-80,-1.7578125E-5,54,75,47,2700,10807,13680,5932,4294,3037,1150,330,Tag0,unknown
1499247086390,0,-104,-2.28515625E-5,54,75,47,2700,10807,13680,5932,4294,3037,1150,330,Tag0,unknown
1499247086390,0,123,2.70263671875E-5,54,75,47,2700,10807,13680,5932,4294,3037,1150,330,Tag0,unknown
1499247086390,0,112,2.4609375E-5,54,75,47,2700,10807,13680,5932,4294,3037,1150,330,Tag0,unknown
1499247086391,0,119,2.6147460937500004E-5,54,75,47,2700,10807,13680,5932,4294,3037,1150,330,Tag0,unknown
1499247086391,0,121,2.6586914062500003E-5,54,75,47,2700,10807,13680,5932,4294,3037,1150,330,Tag0,unknown
1499247086391,0,112,2.4609375E-5,54,75,47,2700,10807,13680,5932,4294,3037,1150,330,Tag0,unknown
1499247086391,0,96,2.109375E-5,54,75,47,2700,10807,13680,5932,4294,3037,1150,330,Tag0,unknown
1499247086391,0,85,1.86767578125E-5,54,75,47,2700,10807,13680,5932,4294,3037,1150,330,Tag0,unknown
1499247086391,0,84,1.8457031250000004E-5,54,75,47,2700,10807,13680,5932,4294,3037,1150,330,Tag0,unknown
1499247086391,0,81,1.77978515625E-5,54,75,47,2700,10807,13680,5932,4294,3037,1150,330,Tag0,unknown
1499247086392,0,68,1.4941406250000001E-5,54,75,47,2700,10807,13680,5932,4294,3037,1150,330,Tag0,unknown
1499247086392,0,41,9.008789062499999E-6,54,75,47,2700,10807,13680,5932,4294,3037,1150,330,Tag0,unknown
1499247086392,0,24,5.2734375E-6,54,75,47,2700,10807,13680,5932,4294,3037,1150,330,Tag0,unknown
1499247086392,0,22,4.833984375E-6,54,75,47,2700,10807,13680,5932,4294,3037,1150,330,Tag0,unknown
1499247086393,0,19,4.1748046875E-6,54,75,47,2700,10807,13680,5932,4294,3037,1150,330,Tag0,unknown
1499247086393,0,11,2.4169921875E-6,54,75,47,2700,10807,13680,5932,4294,3037,1150,330,Tag0,unknown
1499247086393,0,4,8.7890625E-7,54,75,47,2700,10807,13680,5932,4294,3037,1150,330,Tag0,unknown
1499247086393,0,8,1.7578125E-6,54,75,47,2700,10807,13680,5932,4294,3037,1150,330,Tag0,unknown
1499247086393,0,20,4.39453125E-6,54,75,47,2700,10807,13680,5932,4294,3037,1150,330,Tag0,unknown
1499247086393,0,8,1.7578125E-6,54,75,47,2700,10807,13680,5932,4294,3037,1150,330,Tag0,unknown
1499247086393,0,-275,-6.04248046875E-5,54,75,47,2700,10807,13680,5932,4294,3037,1150,330,Tag0,unknown
1499247086394,0,-297,-6.525878906250001E-5,54,75,47,2700,10807,13680,5932,4294,3037,1150,330,Tag0,unknown
1499247086394,0,-309,-6.78955078125E-5,54,75,47,2700,10807,13680,5932,4294,3037,1150,330,Tag0,unknown
1499247086394,0,-321,-7.053222656250001E-5,54,75,47,2700,10807,13680,5932,4294,3037,1150,330,Tag0,unknown
1499247086394,0,-325,-7.14111328125E-5,54,75,47,2700,10807,13680,5932,4294,3037,1150,330,Tag0,unknown
1499247086394,0,-325,-7.14111328125E-5,54,75,47,2700,10807,13680,5932,4294,3037,1150,330,Tag0,unknown
1499247086394,0,-322,-7.0751953125E-5,54,75,47,2700,10807,13680,5932,4294,3037,1150,330,Tag0,unknown
1499247086395,0,-310,-6.8115234375E-5,54,75,47,2700,10807,13680,5932,4294,3037,1150,330,Tag0,unknown
1499247086395,0,-301,-6.613769531250001E-5,54,75,47,2700,10807,13680,5932,4294,3037,1150,330,Tag0,unknown
1499247086395,0,-310,-6.8115234375E-5,54,75,47,2700,10807,13680,5932,4294,3037,1150,330,Tag0,unknown
1499247086395,0,-332,-7.294921875E-5,54,75,47,2700,10807,13680,5932,4294,3037,1150,330,Tag0,unknown
1499247086395,0,-359,-7.88818359375E-5,54,75,47,2700,10807,13680,5932,4294,3037,1150,330,Tag0,unknown
1499247086396,0,-378,-8.3056640625E-5,54,75,47,2700,10807,13680,5932,4294,3037,1150,330,Tag0,unknown
1499247086397,0,-130,-2.8564453125E-5,54,75,47,2700,10807,13680,5932,4294,3037,1150,330,Tag0,unknown
1499247086397,0,-373,-8.19580078125E-5,54,75,47,2700,10807,13680,5932,4294,3037,1150,330,Tag0,unknown
1499247086397,0,-377,-8.28369140625E-5,54,75,47,2700,10807,13680,5932,4294,3037,1150,330,Tag0,unknown
1499247086401,0,-139,-3.0541992187500004E-5,54,75,47,2700,10807,13680,5932,4294,3037,1150,330,Tag0,unknown
1499247086402,0,-149,-3.27392578125E-5,54,75,47,2700,10807,13680,5932,4294,3037,1150,330,Tag0,unknown
1499247086402,0,-139,-3.0541992187500004E-5,54,75,47,2700,10807,13680,5932,4294,3037,1150,330,Tag0,unknown
1499247086402,0,-131,-2.87841796875E-5,54,75,47,2700,10807,13680,5932,4294,3037,1150,330,Tag0,unknown
1499247086402,0,-139,-3.0541992187500004E-5,54,75,47,2700,10807,13680,5932,4294,3037,1150,330,Tag0,unknown
1499247086402,0,-153,-3.3618164062500004E-5,54,75,47,2700,10807,13680,5932,4294,3037,1150,330,Tag0,unknown
1499247086403,0,-157,-3.44970703125E-5,54,75,47,2700,10807,13680,5932,4294,3037,1150,330,Tag0,unknown
1499247086403,0,-164,-3.6035156249999995E-5,54,75,47,2700,10807,13680,5932,4294,3037,1150,330,Tag0,unknown
1499247086403,0,-173,-3.80126953125E-5,54,75,47,2700,10807,13680,5932,4294,3037,1150,330,Tag0,unknown
1499247086403,0,-185,-4.06494140625E-5,54,75,47,2700,10807,13680,5932,4294,3037,1150,330,Tag0,unknown
1499247086403,0,-184,-4.04296875E-5,54,75,47,2700,10807,13680,5932,4294,3037,1150,330,Tag0,unknown
1499247086403,0,-183,-4.02099609375E-5,54,75,47,2700,10807,13680,5932,4294,3037,1150,330,Tag0,unknown
1499247086403,0,-183,-4.02099609375E-5,54,75,47,2700,10807,13680,5932,4294,3037,1150,330,Tag0,unknown
1499247086404,0,-186,-4.0869140625E-5,54,75,47,2700,10807,13680,5932,4294,3037,1150,330,Tag0,unknown
1499247086404,0,-194,-4.2626953125E-5,54,75,47,2700,10807,13680,5932,4294,3037,1150,330,Tag0,unknown
1499247086404,0,-204,-4.4824218749999996E-5,54,75,47,2700,10807,13680,5932,4294,3037,1150,330,Tag0,unknown
1499247086420,0,-211,-4.63623046875E-5,54,75,47,2700,10807,13680,5932,4294,3037,1150,330,Tag0,unknown
1499247086421,0,-202,-4.4384765625000004E-5,54,75,47,2700,10807,13680,5932,4294,3037,1150,330,Tag0,unknown
1499247086421,0,-177,-3.8891601562500006E-5,54,75,47,2700,10807,13680,5932,4294,3037,1150,330,Tag0,unknown
1499247086421,0,-156,-3.427734375E-5,54,75,47,2700,10807,13680,5932,4294,3037,1150,330,Tag0,unknown
1499247086421,0,-157,-3.44970703125E-5,54,75,47,2700,10807,13680,5932,4294,3037,1150,330,Tag0,unknown
1499247086421,0,-162,-3.5595703125E-5,54,75,47,2700,10807,13680,5932,4294,3037,1150,330,Tag0,unknown
1499247086451,0,-157,-3.44970703125E-5,54,75,47,2700,10807,13680,5932,4294,3037,1150,330,Tag0,unknown
1499247086452,0,-158,-3.4716796875000005E-5,54,75,47,2700,10807,13680,5932,4294,3037,1150,330,Tag0,unknown
1499247086453,0,-164,-3.6035156249999995E-5,54,75,47,2700,10807,13680,5932,4294,3037,1150,330,Tag0,unknown
1499247086453,0,-162,-3.5595703125E-5,54,75,47,2700,10807,13680,5932,4294,3037,1150,330,Tag0,unknown
1499247086454,0,-162,-3.5595703125E-5,54,75,47,2700,10807,13680,5932,4294,3037,1150,330,Tag0,unknown
1499247086455,0,-156,-3.427734375E-5,54,75,47,2700,10807,13680,5932,4294,3037,1150,330,Tag0,unknown
1499247086455,0,-150,-3.2958984375E-5,54,75,47,2700,10807,13680,5932,4294,3037,1150,330,Tag0,unknown
1499247086456,0,-139,-3.0541992187500004E-5,54,75,47,2700,10807,13680,5932,4294,3037,1150,330,Tag0,unknown
1499247086456,0,-381,-8.371582031250001E-5,54,75,47,2700,10807,13680,5932,4294,3037,1150,330,Tag0,unknown
1499247086457,0,-363,-7.97607421875E-5,54,75,47,2700,10807,13680,5932,4294,3037,1150,330,Tag0,unknown
1499247086481,0,-348,-7.646484375E-5,41,74,47,80106,97280,16154,22167,4609,2551,840,227,Tag0,unknown
1499247086482,0,-331,-7.272949218750001E-5,41,74,47,80106,97280,16154,22167,4609,2551,840,227,Tag0,unknown
1499247086482,0,-317,-6.96533203125E-5,41,74,47,80106,97280,16154,22167,4609,2551,840,227,Tag0,unknown
1499247086483,0,-313,-6.87744140625E-5,41,74,47,80106,97280,16154,22167,4609,2551,840,227,Tag0,unknown
1499247086483,0,-311,-6.833496093750001E-5,41,74,47,80106,97280,16154,22167,4609,2551,840,227,Tag0,unknown
1499247086484,0,-307,-6.74560546875E-5,41,74,47,80106,97280,16154,22167,4609,2551,840,227,Tag0,unknown
1499247086484,0,-297,-6.525878906250001E-5,41,74,47,80106,97280,16154,22167,4609,2551,840,227,Tag0,unknown
1499247086485,0,-293,-6.43798828125E-5,41,74,47,80106,97280,16154,22167,4609,2551,840,227,Tag0,unknown
1499247086486,0,-295,-6.48193359375E-5,41,74,47,80106,97280,16154,22167,4609,2551,840,227,Tag0,unknown
1499247086486,0,-293,-6.43798828125E-5,41,74,47,80106,97280,16154,22167,4609,2551,840,227,Tag0,unknown
1499247086487,0,-279,-6.13037109375E-5,41,74,47,80106,97280,16154,22167,4609,2551,840,227,Tag0,unknown
1499247086487,0,-268,-5.8886718750000006E-5,41,74,47,80106,97280,16154,22167,4609,2551,840,227,Tag0,unknown
1499247086488,0,-261,-5.73486328125E-5,41,74,47,80106,97280,16154,22167,4609,2551,840,227,Tag0,unknown
1499247086488,0,0,0.0,41,74,47,80106,97280,16154,22167,4609,2551,840,227,Tag0,unknown
1499247086488,0,-259,-5.69091796875E-5,41,74,47,80106,97280,16154,22167,4609,2551,840,227,Tag0,unknown
1499247086489,0,-266,-5.8447265625E-5,41,74,47,80106,97280,16154,22167,4609,2551,840,227,Tag0,unknown
1499247086489,0,-278,-6.108398437500001E-5,41,74,47,80106,97280,16154,22167,4609,2551,840,227,Tag0,unknown
1499247086490,0,-280,-6.15234375E-5,41,74,47,80106,97280,16154,22167,4609,2551,840,227,Tag0,unknown
1499247086490,0,-265,-5.82275390625E-5,41,74,47,80106,97280,16154,22167,4609,2551,840,227,Tag0,unknown
1499247086491,0,4,8.7890625E-7,41,74,47,80106,97280,16154,22167,4609,2551,840,227,Tag0,unknown
1499247086492,0,8,1.7578125E-6,41,74,47,80106,97280,16154,22167,4609,2551,840,227,Tag0,unknown
1499247086492,0,5,1.0986328125E-6,41,74,47,80106,97280,16154,22167,4609,2551,840,227,Tag0,unknown
1499247086493,0,2,4.39453125E-7,41,74,47,80106,97280,16154,22167,4609,2551,840,227,Tag0,unknown
1499247086493,0,4,8.7890625E-7,41,74,47,80106,97280,16154,22167,4609,2551,840,227,Tag0,unknown
1499247086494,0,19,4.1748046875E-6,41,74,47,80106,97280,16154,22167,4609,2551,840,227,Tag0,unknown
1499247086497,0,48,1.0546875E-5,41,74,41,80106,97280,16154,22167,4609,2551,840,227,Tag0,unknown
1499247086498,0,71,1.56005859375E-5,41,74,41,80106,97280,16154,22167,4609,2551,840,227,Tag0,unknown
1499247086506,0,74,1.6259765625E-5,41,74,41,80106,97280,16154,22167,4609,2551,840,227,Tag0,unknown
1499247086507,0,67,1.4721679687500002E-5,41,74,41,80106,97280,16154,22167,4609,2551,840,227,Tag0,unknown
1499247086507,0,67,1.4721679687500002E-5,41,74,41,80106,97280,16154,22167,4609,2551,840,227,Tag0,unknown
1499247086508,0,77,1.69189453125E-5,41,74,41,80106,97280,16154,22167,4609,2551,840,227,Tag0,unknown
1499247086508,0,89,1.95556640625E-5,41,74,41,80106,97280,16154,22167,4609,2551,840,227,Tag0,unknown
1499247086509,0,97,2.13134765625E-5,41,74,41,80106,97280,16154,22167,4609,2551,840,227,Tag0,unknown
1499247086509,0,107,2.35107421875E-5,41,74,41,80106,97280,16154,22167,4609,2551,840,227,Tag0,unknown
1499247086509,0,118,2.5927734375E-5,41,74,41,80106,97280,16154,22167,4609,2551,840,227,Tag0,unknown
1499247086510,0,120,2.63671875E-5,41,74,41,80106,97280,16154,22167,4609,2551,840,227,Tag0,unknown
1499247086510,0,120,2.63671875E-5,41,74,41,80106,97280,16154,22167,4609,2551,840,227,Tag0,unknown
1499247086510,0,-120,-2.63671875E-5,41,74,41,80106,97280,16154,22167,4609,2551,840,227,Tag0,unknown
1499247086511,0,-95,-2.08740234375E-5,41,74,41,80106,97280,16154,22167,4609,2551,840,227,Tag0,unknown
1499247086511,0,-78,-1.7138671875E-5,41,74,41,80106,97280,16154,22167,4609,2551,840,227,Tag0,unknown
1499247086512,0,-61,-1.34033203125E-5,41,74,41,80106,97280,16154,22167,4609,2551,840,227,Tag0,unknown
1499247086512,0,-32,-7.03125E-6,41,74,41,80106,97280,16154,22167,4609,2551,840,227,Tag0,unknown
1499247086513,0,-7,-1.5380859375E-6,41,74,41,80106,97280,16154,22167,4609,2551,840,227,Tag0,unknown
1499247086513,0,272,5.9765625000000004E-5,41,74,41,80106,97280,16154,22167,4609,2551,840,227,Tag0,unknown
1499247086513,0,279,6.13037109375E-5,41,74,41,80106,97280,16154,22167,4609,2551,840,227,Tag0,unknown
1499247086513,0,284,6.240234375E-5,41,74,41,80106,97280,16154,22167,4609,2551,840,227,Tag0,unknown
1499247086514,0,291,6.39404296875E-5,41,74,41,80106,97280,16154,22167,4609,2551,840,227,Tag0,unknown
1499247086514,0,296,6.50390625E-5,41,74,41,80106,97280,16154,22167,4609,2551,840,227,Tag0,unknown
1499247086514,0,298,6.5478515625E-5,41,74,41,80106,97280,16154,22167,4609,2551,840,227,Tag0,unknown
1499247086515,0,301,6.613769531250001E-5,41,74,41,80106,97280,16154,22167,4609,2551,840,227,Tag0,unknown
1499247086525,0,312,6.85546875E-5,41,74,41,80106,97280,16154,22167,4609,2551,840,227,Tag0,unknown
1499247086526,0,316,6.943359375000001E-5,41,74,41,80106,97280,16154,22167,4609,2551,840,227,Tag0,unknown
1499247086526,0,322,7.0751953125E-5,41,74,41,80106,97280,16154,22167,4609,2551,840,227,Tag0,unknown
1499247086527,0,327,7.18505859375E-5,41,74,41,80106,97280,16154,22167,4609,2551,840,227,Tag0,unknown
1499247086527,0,326,7.163085937500001E-5,41,74,41,80106,97280,16154,22167,4609,2551,840,227,Tag0,unknown
1499247086528,0,320,7.03125E-5,41,74,41,80106,97280,16154,22167,4609,2551,840,227,Tag0,unknown
1499247086528,0,322,7.0751953125E-5,41,74,41,80106,97280,16154,22167,4609,2551,840,227,Tag0,unknown
1499247086529,0,330,7.2509765625E-5,41,74,41,80106,97280,16154,22167,4609,2551,840,227,Tag0,unknown
1499247086529,0,346,7.6025390625E-5,41,74,41,80106,97280,16154,22167,4609,2551,840,227,Tag0,unknown
1499247086541,0,356,7.822265625E-5,41,74,41,80106,97280,16154,22167,4609,2551,840,227,Tag0,unknown
1499247086542,0,345,7.58056640625E-5,41,74,41,80106,97280,16154,22167,4609,2551,840,227,Tag0,unknown
1499247086542,0,322,7.0751953125E-5,41,74,41,80106,97280,16154,22167,4609,2551,840,227,Tag0,unknown
1499247086543,0,308,6.767578125E-5,41,74,41,80106,97280,16154,22167,4609,2551,840,227,Tag0,unknown
1499247086543,0,313,6.87744140625E-5,41,74,41,80106,97280,16154,22167,4609,2551,840,227,Tag0,unknown
1499247086546,0,314,6.8994140625E-5,41,74,41,80106,97280,16154,22167,4609,2551,840,227,Tag0,unknown
1499247086546,0,298,6.5478515625E-5,41,74,41,80106,97280,16154,22167,4609,2551,840,227,Tag0,unknown
1499247086547,0,282,6.1962890625E-5,41,74,41,80106,97280,16154,22167,4609,2551,840,227,Tag0,unknown
1499247086549,0,272,5.9765625000000004E-5,41,74,41,80106,97280,16154,22167,4609,2551,840,227,Tag0,unknown
1499247086549,0,266,5.8447265625E-5,41,74,41,80106,97280,16154,22167,4609,2551,840,227,Tag0,unknown
1499247086550,0,262,5.7568359375E-5,41,74,41,80106,97280,16154,22167,4609,2551,840,227,Tag0,unknown
1499247086550,0,260,5.712890625E-5,41,74,41,80106,97280,16154,22167,4609,2551,840,227,Tag0,unknown
1499247086550,0,258,5.6689453125000004E-5,41,74,41,80106,97280,16154,22167,4609,2551,840,227,Tag0,unknown
1499247086551,0,-6,-1.318359375E-6,41,74,41,80106,97280,16154,22167,4609,2551,840,227,Tag0,unknown
1499247086551,0,-20,-4.39453125E-6,41,74,41,80106,97280,16154,22167,4609,2551,840,227,Tag0,unknown
1499247086551,0,-48,-1.0546875E-5,41,74,41,80106,97280,16154,22167,4609,2551,840,227,Tag0,unknown
1499247086551,0,-75,-1.64794921875E-5,41,74,41,80106,97280,16154,22167,4609,2551,840,227,Tag0,unknown
1499247086551,0,-83,-1.82373046875E-5,41,74,41,80106,97280,16154,22167,4609,2551,840,227,Tag0,unknown
1499247086552,0,-76,-1.669921875E-5,41,74,41,80106,97280,16154,22167,4609,2551,840,227,Tag0,unknown
1499247086552,0,-72,-1.58203125E-5,41,74,41,80106,97280,16154,22167,4609,2551,840,227,Tag0,unknown
1499247086552,0,-80,-1.7578125E-5,41,74,41,80106,97280,16154,22167,4609,2551,840,227,Tag0,unknown
1499247086553,0,-100,-2.197265625E-5,41,74,41,80106,97280,16154,22167,4609,2551,840,227,Tag0,unknown
1499247086553,0,-104,-2.28515625E-5,41,74,41,80106,97280,16154,22167,4609,2551,840,227,Tag0,unknown
1499247086722,0,-86,-1.8896484375000003E-5,41,74,41,80106,97280,16154,22167,4609,2551,840,227,Tag0,unknown
1499247086723,0,-73,-1.6040039062500002E-5,41,74,41,80106,97280,16154,22167,4609,2551,840,227,Tag0,unknown
1499247086723,0,-79,-1.7358398437500003E-5,41,74,41,80106,97280,16154,22167,4609,2551,840,227,Tag0,unknown
1499247086723,0,-94,-2.0654296875000002E-5,41,74,41,80106,97280,16154,22167,4609,2551,840,227,Tag0,unknown
1499247086724,0,-107,-2.35107421875E-5,41,74,41,80106,97280,16154,22167,4609,2551,840,227,Tag0,unknown
1499247086724,0,-117,-2.5708007812499998E-5,41,74,41,80106,97280,16154,22167,4609,2551,840,227,Tag0,unknown
1499247086724,0,-111,-2.43896484375E-5,41,74,41,80106,97280,16154,22167,4609,2551,840,227,Tag0,unknown
1499247086725,0,-100,-2.197265625E-5,41,74,41,80106,97280,16154,22167,4609,2551,840,227,Tag0,unknown
1499247086725,0,-102,-2.2412109374999998E-5,41,74,41,80106,97280,16154,22167,4609,2551,840,227,Tag0,unknown
1499247086725,0,-117,-2.5708007812499998E-5,41,74,41,80106,97280,16154,22167,4609,2551,840,227,Tag0,unknown
1499247086726,0,-124,-2.724609375E-5,41,74,41,80106,97280,16154,22167,4609,2551,840,227,Tag0,unknown
1499247086726,0,-127,-2.79052734375E-5,41,74,41,80106,97280,16154,22167,4609,2551,840,227,Tag0,unknown
1499247086727,0,119,2.6147460937500004E-5,41,74,41,80106,97280,16154,22167,4609,2551,840,227,Tag0,unknown
1499247086727,0,116,2.548828125E-5,41,74,41,80106,97280,16154,22167,4609,2551,840,227,Tag0,unknown
1499247086727,0,115,2.52685546875E-5,41,74,41,80106,97280,16154,22167,4609,2551,840,227,Tag0,unknown
1499247086728,0,101,2.2192382812500002E-5,41,74,41,80106,97280,16154,22167,4609,2551,840,227,Tag0,unknown
1499247086728,0,72,1.58203125E-5,41,74,41,80106,97280,16154,22167,4609,2551,840,227,Tag0,unknown
1499247086728,0,44,9.66796875E-6,41,74,41,80106,97280,16154,22167,4609,2551,840,227,Tag0,unknown
1499247086729,0,32,7.03125E-6,41,74,41,80106,97280,16154,22167,4609,2551,840,227,Tag0,unknown
1499247086729,0,35,7.6904296875E-6,41,74,41,80106,97280,16154,22167,4609,2551,840,227,Tag0,unknown
1499247086729,0,39,8.5693359375E-6,41,74,41,80106,97280,16154,22167,4609,2551,840,227,Tag0,unknown
1499247086730,0,37,8.1298828125E-6,41,74,41,80106,97280,16154,22167,4609,2551,840,227,Tag0,unknown
1499247086730,0,20,4.39453125E-6,41,74,41,80106,97280,16154,22167,4609,2551,840,227,Tag0,unknown
1499247086730,0,11,2.4169921875E-6,41,74,41,80106,97280,16154,22167,4609,2551,840,227,Tag0,unknown
1499247086731,0,19,4.1748046875E-6,41,74,41,80106,97280,16154,22167,4609,2551,840,227,Tag0,unknown
1499247086731,0,22,4.833984375E-6,41,74,41,80106,97280,16154,22167,4609,2551,840,227,Tag0,unknown
1499247086732,0,5,1.0986328125E-6,41,74,41,80106,97280,16154,22167,4609,2551,840,227,Tag0,unknown
1499247086732,0,-269,-5.9106445312499996E-5,41,74,41,80106,97280,16154,22167,4609,2551,840,227,Tag0,unknown
1499247086732,0,-290,-6.3720703125E-5,41,74,41,80106,97280,16154,22167,4609,2551,840,227,Tag0,unknown
1499247086733,0,-311,-6.833496093750001E-5,41,74,41,80106,97280,16154,22167,4609,2551,840,227,Tag0,unknown
1499247086733,0,-329,-7.229003906250001E-5,41,74,41,80106,97280,16154,22167,4609,2551,840,227,Tag0,unknown
1499247086776,0,-332,-7.294921875E-5,41,74,41,80106,97280,16154,22167,4609,2551,840,227,Tag0,unknown
1499247086789,0,-331,-7.272949218750001E-5,41,74,41,80106,97280,16154,22167,4609,2551,840,227,Tag0,unknown
1499247086790,0,-345,-7.58056640625E-5,41,74,41,80106,97280,16154,22167,4609,2551,840,227,Tag0,unknown
1499247086790,0,-361,-7.93212890625E-5,41,74,41,80106,97280,16154,22167,4609,2551,840,227,Tag0,unknown
1499247086792,0,-365,-8.02001953125E-5,41,74,41,80106,97280,16154,22167,4609,2551,840,227,Tag0,unknown
1499247086793,0,-369,-8.10791015625E-5,41,74,41,80106,97280,16154,22167,4609,2551,840,227,Tag0,unknown
1499247086793,0,-382,-8.3935546875E-5,41,74,41,80106,97280,16154,22167,4609,2551,840,227,Tag0,unknown
1499247086794,0,-140,-3.076171875E-5,41,74,41,80106,97280,16154,22167,4609,2551,840,227,Tag0,unknown
1499247086794,0,-148,-3.251953125E-5,41,74,41,80106,97280,16154,22167,4609,2551,840,227,Tag0,unknown
1499247086795,0,-147,-3.22998046875E-5,41,74,41,80106,97280,16154,22167,4609,2551,840,227,Tag0,unknown
1499247086795,0,-155,-3.40576171875E-5,41,74,41,80106,97280,16154,22167,4609,2551,840,227,Tag0,unknown
1499247086796,0,-177,-3.8891601562500006E-5,41,74,41,80106,97280,16154,22167,4609,2551,840,227,Tag0,unknown
1499247086796,0,-183,-4.02099609375E-5,41,74,41,80106,97280,16154,22167,4609,2551,840,227,Tag0,unknown
1499247086797,0,-183,-4.02099609375E-5,41,74,41,80106,97280,16154,22167,4609,2551,840,227,Tag0,unknown
1499247086797,0,-187,-4.10888671875E-5,41,74,41,80106,97280,16154,22167,4609,2551,840,227,Tag0,unknown
1499247086798,0,-186,-4.0869140625E-5,41,74,41,80106,97280,16154,22167,4609,2551,840,227,Tag0,unknown
1499247086798,0,-173,-3.80126953125E-5,41,74,41,80106,97280,16154,22167,4609,2551,840,227,Tag0,unknown
1499247086799,0,-161,-3.53759765625E-5,41,74,41,80106,97280,16154,22167,4609,2551,840,227,Tag0,unknown
1499247086799,0,-170,-3.7353515625E-5,41,74,41,80106,97280,16154,22167,4609,2551,840,227,Tag0,unknown
1499247086800,0,-178,-3.9111328125E-5,41,74,41,80106,97280,16154,22167,4609,2551,840,227,Tag0,unknown
1499247086800,0,-166,-3.6474609375E-5,41,74,41,80106,97280,16154,22167,4609,2551,840,227,Tag0,unknown
1499247086801,0,-164,-3.6035156249999995E-5,41,74,41,80106,97280,16154,22167,4609,2551,840,227,Tag0,unknown
1499247086801,0,-166,-3.6474609375E-5,41,74,41,80106,97280,16154,22167,4609,2551,840,227,Tag0,unknown
1499247086801,0,-154,-3.3837890625E-5,41,74,41,80106,97280,16154,22167,4609,2551,840,227,Tag0,unknown
1499247086802,0,-147,-3.22998046875E-5,41,74,41,80106,97280,16154,22167,4609,2551,840,227,Tag0,unknown
1499247086803,0,-148,-3.251953125E-5,41,74,41,80106,97280,16154,22167,4609,2551,840,227,Tag0,unknown
1499247086803,0,-140,-3.076171875E-5,41,74,41,80106,97280,16154,22167,4609,2551,840,227,Tag0,unknown
1499247086803,0,-130,-2.8564453125E-5,41,74,41,80106,97280,16154,22167,4609,2551,840,227,Tag0,unknown
1499247086804,0,-377,-8.28369140625E-5,41,74,41,80106,97280,16154,22167,4609,2551,840,227,Tag0,unknown
1499247086804,0,-372,-8.173828125E-5,41,74,41,80106,97280,16154,22167,4609,2551,840,227,Tag0,unknown
1499247086805,0,-129,-2.8344726562500002E-5,41,74,41,80106,97280,16154,22167,4609,2551,840,227,Tag0,unknown
1499247086805,0,-158,-3.4716796875000005E-5,41,74,41,80106,97280,16154,22167,4609,2551,840,227,Tag0,unknown
1499247086806,0,-174,-3.8232421875E-5,41,74,41,80106,97280,16154,22167,4609,2551,840,227,Tag0,unknown
1499247086806,0,-153,-3.3618164062500004E-5,41,74,41,80106,97280,16154,22167,4609,2551,840,227,Tag0,unknown
1499247086806,0,-129,-2.8344726562500002E-5,41,74,41,80106,97280,16154,22167,4609,2551,840,227,Tag0,unknown
1499247086807,0,-129,-2.8344726562500002E-5,41,74,41,80106,97280,16154,22167,4609,2551,840,227,Tag0,unknown
1499247086807,0,-135,-2.96630859375E-5,41,74,41,80106,97280,16154,22167,4609,2551,840,227,Tag0,unknown
1499247086807,0,-129,-2.8344726562500002E-5,41,74,41,80106,97280,16154,22167,4609,2551,840,227,Tag0,unknown
1499247086808,0,-371,-8.151855468750001E-5,41,74,41,80106,97280,16154,22167,4609,2551,840,227,Tag0,unknown
1499247086808,0,-362,-7.954101562500001E-5,41,74,41,80106,97280,16154,22167,4609,2551,840,227,Tag0,unknown
1499247086809,0,-345,-7.58056640625E-5,41,74,41,80106,97280,16154,22167,4609,2551,840,227,Tag0,unknown
1499247086809,0,-322,-7.0751953125E-5,41,74,41,80106,97280,16154,22167,4609,2551,840,227,Tag0,unknown
1499247086809,0,-293,-6.43798828125E-5,41,74,41,80106,97280,16154,22167,4609,2551,840,227,Tag0,unknown
1499247086810,0,-289,-6.35009765625E-5,41,74,41,80106,97280,16154,22167,4609,2551,840,227,Tag0,unknown
1499247086810,0,-298,-6.5478515625E-5,41,74,41,80106,97280,16154,22167,4609,2551,840,227,Tag0,unknown
1499247086810,0,-298,-6.5478515625E-5,41,74,41,80106,97280,16154,22167,4609,2551,840,227,Tag0,unknown
1499247086811,0,-280,-6.15234375E-5,41,74,41,80106,97280,16154,22167,4609,2551,840,227,Tag0,unknown
1499247086811,0,-263,-5.7788085937500005E-5,41,74,41,80106,97280,16154,22167,4609,2551,840,227,Tag0,unknown
1499247086811,0,7,1.5380859375E-6,41,74,41,80106,97280,16154,22167,4609,2551,840,227,Tag0,unknown
1499247086815,0,32,7.03125E-6,41,74,41,80106,97280,16154,22167,4609,2551,840,227,Tag0,unknown
1499247086818,0,45,9.8876953125E-6,41,74,46,80106,97280,16154,22167,4609,2551,840,227,Tag0,unknown
1499247086819,0,42,9.228515625000002E-6,41,74,46,80106,97280,16154,22167,4609,2551,840,227,Tag0,unknown
1499247086819,0,52,1.142578125E-5,41,74,46,80106,97280,16154,22167,4609,2551,840,227,Tag0,unknown
1499247086821,0,65,1.42822265625E-5,41,74,46,80106,97280,16154,22167,4609,2551,840,227,Tag0,unknown
1499247086822,0,74,1.6259765625E-5,41,74,46,80106,97280,16154,22167,4609,2551,840,227,Tag0,unknown
1499247086822,0,85,1.86767578125E-5,41,74,46,80106,97280,16154,22167,4609,2551,840,227,Tag0,unknown
1499247086823,0,89,1.95556640625E-5,41,74,46,80106,97280,16154,22167,4609,2551,840,227,Tag0,unknown
1499247086823,0,82,1.8017578124999998E-5,41,74,46,80106,97280,16154,22167,4609,2551,840,227,Tag0,unknown
1499247086823,0,72,1.58203125E-5,41,74,46,80106,97280,16154,22167,4609,2551,840,227,Tag0,unknown
1499247086823,0,70,1.5380859375E-5,41,74,46,80106,97280,16154,22167,4609,2551,840,227,Tag0,unknown
1499247086824,0,69,1.51611328125E-5,41,74,46,80106,97280,16154,22167,4609,2551,840,227,Tag0,unknown
1499247086824,0,54,1.1865234375000001E-5,41,74,46,80106,97280,16154,22167,4609,2551,840,227,Tag0,unknown
1499247086824,0,28,6.15234375E-6,41,74,46,80106,97280,16154,22167,4609,2551,840,227,Tag0,unknown
1499247086824,0,16,3.515625E-6,41,74,46,80106,97280,16154,22167,4609,2551,840,227,Tag0,unknown
1499247086825,0,16,3.515625E-6,41,74,46,80106,97280,16154,22167,4609,2551,840,227,Tag0,unknown
1499247086825,0,17,3.7353515625000003E-6,41,74,46,80106,97280,16154,22167,4609,2551,840,227,Tag0,unknown
1499247086826,0,19,4.1748046875E-6,41,74,46,80106,97280,16154,22167,4609,2551,840,227,Tag0,unknown
1499247086826,0,23,5.0537109375E-6,41,74,46,80106,97280,16154,22167,4609,2551,840,227,Tag0,unknown
1499247086826,0,26,5.712890625E-6,41,74,46,80106,97280,16154,22167,4609,2551,840,227,Tag0,unknown
1499247086827,0,32,7.03125E-6,41,74,46,80106,97280,16154,22167,4609,2551,840,227,Tag0,unknown
1499247086827,0,33,7.2509765625E-6,41,74,46,80106,97280,16154,22167,4609,2551,840,227,Tag0,unknown
1499247086827,0,29,6.3720703125E-6,41,74,46,80106,97280,16154,22167,4609,2551,840,227,Tag0,unknown
1499247086827,0,34,7.4707031250000005E-6,41,74,46,80106,97280,16154,22167,4609,2551,840,227,Tag0,unknown
1499247086828,0,34,7.4707031250000005E-6,41,74,46,80106,97280,16154,22167,4609,2551,840,227,Tag0,unknown
1499247086828,0,27,5.9326171875000005E-6,41,74,46,80106,97280,16154,22167,4609,2551,840,227,Tag0,unknown
1499247086828,0,12,2.63671875E-6,41,74,46,80106,97280,16154,22167,4609,2551,840,227,Tag0,unknown
1499247086829,0,-257,-5.64697265625E-5,41,74,46,80106,97280,16154,22167,4609,2551,840,227,Tag0,unknown
1499247086829,0,-261,-5.73486328125E-5,41,74,46,80106,97280,16154,22167,4609,2551,840,227,Tag0,unknown
1499247086829,0,3,6.591796875E-7,41,74,46,80106,97280,16154,22167,4609,2551,840,227,Tag0,unknown
1499247086829,0,12,2.63671875E-6,41,74,46,80106,97280,16154,22167,4609,2551,840,227,Tag0,unknown
1499247086830,0,22,4.833984375E-6,41,74,46,80106,97280,16154,22167,4609,2551,840,227,Tag0,unknown
1499247086830,0,37,8.1298828125E-6,41,74,46,80106,97280,16154,22167,4609,2551,840,227,Tag0,unknown
1499247086830,0,44,9.66796875E-6,41,74,46,80106,97280,16154,22167,4609,2551,840,227,Tag0,unknown
1499247086830,0,44,9.66796875E-6,41,74,46,80106,97280,16154,22167,4609,2551,840,227,Tag0,unknown
1499247086831,0,43,9.448242187500001E-6,41,74,46,80106,97280,16154,22167,4609,2551,840,227,Tag0,unknown
1499247086831,0,45,9.8876953125E-6,41,74,46,80106,97280,16154,22167,4609,2551,840,227,Tag0,unknown
1499247086831,0,37,8.1298828125E-6,41,74,46,80106,97280,16154,22167,4609,2551,840,227,Tag0,unknown
1499247086831,0,29,6.3720703125E-6,41,74,46,80106,97280,16154,22167,4609,2551,840,227,Tag0,unknown
1499247086832,0,39,8.5693359375E-6,41,74,46,80106,97280,16154,22167,4609,2551,840,227,Tag0,unknown
1499247086832,0,52,1.142578125E-5,41,74,46,80106,97280,16154,22167,4609,2551,840,227,Tag0,unknown
1499247086832,0,56,1.23046875E-5,41,74,46,80106,97280,16154,22167,4609,2551,840,227,Tag0,unknown
1499247086832,0,56,1.23046875E-5,41,74,46,80106,97280,16154,22167,4609,2551,840,227,Tag0,unknown
1499247086833,0,72,1.58203125E-5,41,74,46,80106,97280,16154,22167,4609,2551,840,227,Tag0,unknown
1499247086833,0,104,2.28515625E-5,41,74,46,80106,97280,16154,22167,4609,2551,840,227,Tag0,unknown
1499247086834,0,-120,-2.63671875E-5,41,74,46,80106,97280,16154,22167,4609,2551,840,227,Tag0,unknown
1499247086834,0,-87,-1.91162109375E-5,41,74,46,80106,97280,16154,22167,4609,2551,840,227,Tag0,unknown
1499247086854,0,-79,-1.7358398437500003E-5,41,74,46,80106,97280,16154,22167,4609,2551,840,227,Tag0,unknown
1499247086854,0,-102,-2.2412109374999998E-5,41,74,46,80106,97280,16154,22167,4609,2551,840,227,Tag0,unknown
1499247086875,0,-120,-2.63671875E-5,41,74,46,80106,97280,16154,22167,4609,2551,840,227,Tag0,unknown
1499247086876,0,-111,-2.43896484375E-5,41,74,46,80106,97280,16154,22167,4609,2551,840,227,Tag0,unknown
1499247086877,0,-101,-2.2192382812500002E-5,41,74,46,80106,97280,16154,22167,4609,2551,840,227,Tag0,unknown
1499247086877,0,-103,-2.26318359375E-5,41,74,46,80106,97280,16154,22167,4609,2551,840,227,Tag0,unknown
1499247086878,0,-102,-2.2412109374999998E-5,41,74,46,80106,97280,16154,22167,4609,2551,840,227,Tag0,unknown
1499247086878,0,-104,-2.28515625E-5,41,74,46,80106,97280,16154,22167,4609,2551,840,227,Tag0,unknown
1499247086879,0,-117,-2.5708007812499998E-5,41,74,46,80106,97280,16154,22167,4609,2551,840,227,Tag0,unknown
1499247086880,0,121,2.6586914062500003E-5,41,74,46,80106,97280,16154,22167,4609,2551,840,227,Tag0,unknown
1499247086880,0,102,2.2412109374999998E-5,41,74,46,80106,97280,16154,22167,4609,2551,840,227,Tag0,unknown
1499247086881,0,86,1.8896484375000003E-5,41,74,46,80106,97280,16154,22167,4609,2551,840,227,Tag0,unknown
1499247086881,0,77,1.69189453125E-5,41,74,46,80106,97280,16154,22167,4609,2551,840,227,Tag0,unknown
1499247086882,0,74,1.6259765625E-5,41,74,46,80106,97280,16154,22167,4609,2551,840,227,Tag0,unknown
1499247086882,0,84,1.8457031250000004E-5,41,74,46,80106,97280,16154,22167,4609,2551,840,227,Tag0,unknown
1499247086883,0,97,2.13134765625E-5,41,74,46,80106,97280,16154,22167,4609,2551,840,227,Tag0,unknown
1499247087093,0,101,2.2192382812500002E-5,41,74,46,80106,97280,16154,22167,4609,2551,840,227,Tag0,unknown
1499247087094,0,91,1.99951171875E-5,41,74,46,80106,97280,16154,22167,4609,2551,840,227,Tag0,unknown
1499247087094,0,85,1.86767578125E-5,41,74,46,80106,97280,16154,22167,4609,2551,840,227,Tag0,unknown
1499247087095,0,99,2.1752929687500003E-5,41,74,46,80106,97280,16154,22167,4609,2551,840,227,Tag0,unknown
1499247087095,0,-124,-2.724609375E-5,41,74,46,80106,97280,16154,22167,4609,2551,840,227,Tag0,unknown
1499247087096,0,-110,-2.4169921875E-5,41,74,46,80106,97280,16154,22167,4609,2551,840,227,Tag0,unknown
1499247087096,0,-107,-2.35107421875E-5,41,74,46,80106,97280,16154,22167,4609,2551,840,227,Tag0,unknown
1499247087097,0,-96,-2.109375E-5,41,74,46,80106,97280,16154,22167,4609,2551,840,227,Tag0,unknown
1499247087097,0,-106,-2.3291015625000003E-5,41,74,46,80106,97280,16154,22167,4609,2551,840,227,Tag0,unknown
1499247087097,0,122,2.6806640625E-5,41,74,46,80106,97280,16154,22167,4609,2551,840,227,Tag0,unknown
1499247087098,0,100,2.197265625E-5,41,74,46,80106,97280,16154,22167,4609,2551,840,227,Tag0,unknown
1499247087098,0,107,2.35107421875E-5,41,74,46,80106,97280,16154,22167,4609,2551,840,227,Tag0,unknown
1499247087099,0,-122,-2.6806640625E-5,41,74,46,80106,97280,16154,22167,4609,2551,840,227,Tag0,unknown
1499247087099,0,-101,-2.2192382812500002E-5,41,74,46,80106,97280,16154,22167,4609,2551,840,227,Tag0,unknown
1499247087099,0,-86,-1.8896484375000003E-5,41,74,46,80106,97280,16154,22167,4609,2551,840,227,Tag0,unknown
1499247087100,0,-69,-1.51611328125E-5,41,74,46,80106,97280,16154,22167,4609,2551,840,227,Tag0,unknown
1499247087101,0,-62,-1.3623046875E-5,41,74,46,80106,97280,16154,22167,4609,2551,840,227,Tag0,unknown
1499247087101,0,-71,-1.56005859375E-5,41,74,46,80106,97280,16154,22167,4609,2551,840,227,Tag0,unknown
1499247087101,0,-72,-1.58203125E-5,41,74,46,80106,97280,16154,22167,4609,2551,840,227,Tag0,unknown
1499247087102,0,-74,-1.6259765625E-5,41,74,46,80106,97280,16154,22167,4609,2551,840,227,Tag0,unknown
1499247087102,0,-76,-1.669921875E-5,41,74,46,80106,97280,16154,22167,4609,2551,840,227,Tag0,unknown
1499247087103,0,-58,-1.2744140625E-5,41,74,46,80106,97280,16154,22167,4609,2551,840,227,Tag0,unknown
1499247087103,0,-30,-6.591796875E-6,41,74,46,80106,97280,16154,22167,4609,2551,840,227,Tag0,unknown
1499247087103,0,-24,-5.2734375E-6,41,74,46,80106,97280,16154,22167,4609,2551,840,227,Tag0,unknown
1499247087104,0,-46,-1.0107421875E-5,41,74,46,80106,97280,16154,22167,4609,2551,840,227,Tag0,unknown
1499247087104,0,-69,-1.51611328125E-5,41,74,46,80106,97280,16154,22167,4609,2551,840,227,Tag0,unknown
1499247087104,0,-89,-1.95556640625E-5,41,74,46,80106,97280,16154,22167,4609,2551,840,227,Tag0,unknown
1499247087105,0,-104,-2.28515625E-5,41,74,46,80106,97280,16154,22167,4609,2551,840,227,Tag0,unknown
1499247087105,0,-103,-2.26318359375E-5,41,74,46,80106,97280,16154,22167,4609,2551,840,227,Tag0,unknown
1499247087106,0,-94,-2.0654296875000002E-5,41,74,46,80106,97280,16154,22167,4609,2551,840,227,Tag0,unknown
1499247087106,0,-106,-2.3291015625000003E-5,41,74,46,80106,97280,16154,22167,4609,2551,840,227,Tag0,unknown
1499247087110,0,116,2.548828125E-5,41,74,46,80106,97280,16154,22167,4609,2551,840,227,Tag0,unknown
1499247087111,0,85,1.86767578125E-5,41,74,46,80106,97280,16154,22167,4609,2551,840,227,Tag0,unknown
1499247087111,0,73,1.6040039062500002E-5,41,74,46,80106,97280,16154,22167,4609,2551,840,227,Tag0,unknown
1499247087112,0,69,1.51611328125E-5,41,74,46,80106,97280,16154,22167,4609,2551,840,227,Tag0,unknown
1499247087112,0,65,1.42822265625E-5,41,74,46,80106,97280,16154,22167,4609,2551,840,227,Tag0,unknown
1499247087113,0,53,1.1645507812500002E-5,41,74,46,80106,97280,16154,22167,4609,2551,840,227,Tag0,unknown
1499247087113,0,44,9.66796875E-6,41,74,46,80106,97280,16154,22167,4609,2551,840,227,Tag0,unknown
1499247087113,0,35,7.6904296875E-6,41,74,46,80106,97280,16154,22167,4609,2551,840,227,Tag0,unknown
1499247087114,0,20,4.39453125E-6,41,74,46,80106,97280,16154,22167,4609,2551,840,227,Tag0,unknown
1499247087114,0,17,3.7353515625000003E-6,41,74,46,80106,97280,16154,22167,4609,2551,840,227,Tag0,unknown
1499247087114,0,34,7.4707031250000005E-6,41,74,46,80106,97280,16154,22167,4609,2551,840,227,Tag0,unknown
1499247087116,0,51,1.1206054687499999E-5,41,74,46,80106,97280,16154,22167,4609,2551,840,227,Tag0,unknown
1499247087116,0,55,1.20849609375E-5,41,74,46,80106,97280,16154,22167,4609,2551,840,227,Tag0,unknown
1499247087117,0,56,1.23046875E-5,41,74,46,80106,97280,16154,22167,4609,2551,840,227,Tag0,unknown
1499247087118,0,65,1.42822265625E-5,41,74,46,80106,97280,16154,22167,4609,2551,840,227,Tag0,unknown
1499247087118,0,88,1.93359375E-5,41,74,46,80106,97280,16154,22167,4609,2551,840,227,Tag0,unknown
1499247087118,0,117,2.5708007812499998E-5,41,74,46,80106,97280,16154,22167,4609,2551,840,227,Tag0,unknown
1499247087119,0,-121,-2.6586914062500003E-5,41,74,46,80106,97280,16154,22167,4609,2551,840,227,Tag0,unknown
1499247087119,0,-116,-2.548828125E-5,41,74,46,80106,97280,16154,22167,4609,2551,840,227,Tag0,unknown
1499247087119,0,-104,-2.28515625E-5,41,74,46,80106,97280,16154,22167,4609,2551,840,227,Tag0,unknown
1499247087120,0,-101,-2.2192382812500002E-5,41,74,46,80106,97280,16154,22167,4609,2551,840,227,Tag0,unknown
1499247087120,0,-107,-2.35107421875E-5,41,74,46,80106,97280,16154,22167,4609,2551,840,227,Tag0,unknown
1499247087120,0,-122,-2.6806640625E-5,41,74,46,80106,97280,16154,22167,4609,2551,840,227,Tag0,unknown
1499247087121,0,-128,-2.8125E-5,41,74,46,80106,97280,16154,22167,4609,2551,840,227,Tag0,unknown
1499247087121,0,119,2.6147460937500004E-5,41,74,46,80106,97280,16154,22167,4609,2551,840,227,Tag0,unknown
1499247087121,0,105,2.30712890625E-5,41,74,46,80106,97280,16154,22167,4609,2551,840,227,Tag0,unknown
1499247087122,0,91,1.99951171875E-5,41,74,46,80106,97280,16154,22167,4609,2551,840,227,Tag0,unknown
1499247087122,0,89,1.95556640625E-5,41,74,46,80106,97280,16154,22167,4609,2551,840,227,Tag0,unknown
1499247087122,0,91,1.99951171875E-5,41,74,46,80106,97280,16154,22167,4609,2551,840,227,Tag0,unknown
1499247087122,0,92,2.021484375E-5,41,74,46,80106,97280,16154,22167,4609,2551,840,227,Tag0,unknown
1499247087123,0,96,2.109375E-5,41,74,46,80106,97280,16154,22167,4609,2551,840,227,Tag0,unknown
1499247087123,0,91,1.99951171875E-5,41,74,46,80106,97280,16154,22167,4609,2551,840,227,Tag0,unknown
1499247087148,0,86,1.8896484375000003E-5,41,74,46,80106,97280,16154,22167,4609,2551,840,227,Tag0,unknown
1499247087155,0,72,1.58203125E-5,41,74,46,80106,97280,16154,22167,4609,2551,840,227,Tag0,unknown
1499247087156,0,68,1.4941406250000001E-5,41,74,46,80106,97280,16154,22167,4609,2551,840,227,Tag0,unknown
1499247087156,0,69,1.51611328125E-5,41,74,46,80106,97280,16154,22167,4609,2551,840,227,Tag0,unknown
1499247087157,0,61,1.34033203125E-5,41,74,46,80106,97280,16154,22167,4609,2551,840,227,Tag0,unknown
1499247087157,0,55,1.20849609375E-5,41,74,46,80106,97280,16154,22167,4609,2551,840,227,Tag0,unknown
1499247087158,0,45,9.8876953125E-6,41,74,46,80106,97280,16154,22167,4609,2551,840,227,Tag0,unknown
1499247087158,0,41,9.008789062499999E-6,41,74,46,80106,97280,16154,22167,4609,2551,840,227,Tag0,unknown
1499247087159,0,42,9.228515625000002E-6,41,74,46,80106,97280,16154,22167,4609,2551,840,227,Tag0,unknown
1499247087159,0,49,1.07666015625E-5,41,74,46,80106,97280,16154,22167,4609,2551,840,227,Tag0,unknown
1499247087160,0,56,1.23046875E-5,41,74,46,80106,97280,16154,22167,4609,2551,840,227,Tag0,unknown
1499247087160,0,65,1.42822265625E-5,41,74,46,80106,97280,16154,22167,4609,2551,840,227,Tag0,unknown
1499247087161,0,74,1.6259765625E-5,41,74,46,80106,97280,16154,22167,4609,2551,840,227,Tag0,unknown
1499247087161,0,77,1.69189453125E-5,41,74,46,80106,97280,16154,22167,4609,2551,840,227,Tag0,unknown
1499247087162,0,80,1.7578125E-5,41,74,46,80106,97280,16154,22167,4609,2551,840,227,Tag0,unknown
1499247087162,0,89,1.95556640625E-5,41,74,46,80106,97280,16154,22167,4609,2551,840,227,Tag0,unknown
1499247087162,0,102,2.2412109374999998E-5,41,74,46,80106,97280,16154,22167,4609,2551,840,227,Tag0,unknown
1499247087163,0,117,2.5708007812499998E-5,41,74,46,80106,97280,16154,22167,4609,2551,840,227,Tag0,unknown
1499247087164,0,-117,-2.5708007812499998E-5,41,74,46,80106,97280,16154,22167,4609,2551,840,227,Tag0,unknown
1499247087164,0,-103,-2.26318359375E-5,41,74,46,80106,97280,16154,22167,4609,2551,840,227,Tag0,unknown
1499247087164,0,-92,-2.021484375E-5,41,74,46,80106,97280,16154,22167,4609,2551,840,227,Tag0,unknown
1499247087164,0,-96,-2.109375E-5,41,74,46,80106,97280,16154,22167,4609,2551,840,227,Tag0,unknown
1499247087165,0,-112,-2.4609375E-5,41,74,46,80106,97280,16154,22167,4609,2551,840,227,Tag0,unknown
1499247087165,0,123,2.70263671875E-5,41,74,46,80106,97280,16154,22167,4609,2551,840,227,Tag0,unknown
1499247087166,0,109,2.39501953125E-5,41,74,46,80106,97280,16154,22167,4609,2551,840,227,Tag0,unknown
1499247087173,0,97,2.13134765625E-5,41,74,46,80106,97280,16154,22167,4609,2551,840,227,Tag0,unknown
1499247087174,0,80,1.7578125E-5,41,74,46,80106,97280,16154,22167,4609,2551,840,227,Tag0,unknown
1499247087175,0,82,1.8017578124999998E-5,41,74,46,80106,97280,16154,22167,4609,2551,840,227,Tag0,unknown
1499247087175,0,89,1.95556640625E-5,41,74,46,80106,97280,16154,22167,4609,2551,840,227,Tag0,unknown
1499247087176,0,75,1.64794921875E-5,41,74,46,80106,97280,16154,22167,4609,2551,840,227,Tag0,unknown
1499247087176,0,34,7.4707031250000005E-6,41,74,46,80106,97280,16154,22167,4609,2551,840,227,Tag0,unknown
1499247087176,0,0,0.0,41,74,46,80106,97280,16154,22167,4609,2551,840,227,Tag0,unknown
1499247087177,0,9,1.9775390625E-6,41,74,46,80106,97280,16154,22167,4609,2551,840,227,Tag0,unknown
1499247087177,0,51,1.1206054687499999E-5,41,74,46,80106,97280,16154,22167,4609,2551,840,227,Tag0,unknown
1499247087177,0,84,1.8457031250000004E-5,41,74,46,80106,97280,16154,22167,4609,2551,840,227,Tag0,unknown
1499247087178,0,91,1.99951171875E-5,41,74,46,80106,97280,16154,22167,4609,2551,840,227,Tag0,unknown
1499247087178,0,80,1.7578125E-5,41,74,46,80106,97280,16154,22167,4609,2551,840,227,Tag0,unknown
1499247087178,0,68,1.4941406250000001E-5,41,74,46,80106,97280,16154,22167,4609,2551,840,227,Tag0,unknown
1499247087179,0,67,1.4721679687500002E-5,41,74,46,80106,97280,16154,22167,4609,2551,840,227,Tag0,unknown
1499247087179,0,71,1.56005859375E-5,41,74,46,80106,97280,16154,22167,4609,2551,840,227,Tag0,unknown
1499247087180,0,73,1.6040039062500002E-5,41,74,46,80106,97280,16154,22167,4609,2551,840,227,Tag0,unknown
1499247087180,0,77,1.69189453125E-5,41,74,46,80106,97280,16154,22167,4609,2551,840,227,Tag0,unknown
1499247087180,0,85,1.86767578125E-5,41,74,46,80106,97280,16154,22167,4609,2551,840,227,Tag0,unknown
1499247087181,0,89,1.95556640625E-5,41,74,46,80106,97280,16154,22167,4609,2551,840,227,Tag0,unknown
1499247087181,0,76,1.669921875E-5,41,74,46,80106,97280,16154,22167,4609,2551,840,227,Tag0,unknown
1499247087181,0,66,1.4501953125E-5,41,74,46,80106,97280,16154,22167,4609,2551,840,227,Tag0,unknown
1499247087182,0,66,1.4501953125E-5,41,74,46,80106,97280,16154,22167,4609,2551,840,227,Tag0,unknown
1499247087182,0,76,1.669921875E-5,41,74,46,80106,97280,16154,22167,4609,2551,840,227,Tag0,unknown
1499247087652,0,101,2.2192382812500002E-5,41,74,46,80106,97280,16154,22167,4609,2551,840,227,Tag0,unknown
1499247087652,0,123,2.70263671875E-5,41,74,46,80106,97280,16154,22167,4609,2551,840,227,Tag0,unknown
1499247087653,0,124,2.724609375E-5,41,74,46,80106,97280,16154,22167,4609,2551,840,227,Tag0,unknown
1499247087653,0,101,2.2192382812500002E-5,41,74,46,80106,97280,16154,22167,4609,2551,840,227,Tag0,unknown
1499247087653,0,71,1.56005859375E-5,41,74,46,80106,97280,16154,22167,4609,2551,840,227,Tag0,unknown
1499247087654,0,53,1.1645507812500002E-5,41,74,46,80106,97280,16154,22167,4609,2551,840,227,Tag0,unknown
1499247087654,0,48,1.0546875E-5,41,74,46,80106,97280,16154,22167,4609,2551,840,227,Tag0,unknown
1499247087654,0,43,9.448242187500001E-6,41,74,46,80106,97280,16154,22167,4609,2551,840,227,Tag0,unknown
1499247087655,0,35,7.6904296875E-6,41,74,46,80106,97280,16154,22167,4609,2551,840,227,Tag0,unknown
1499247087655,0,25,5.4931640625E-6,41,74,46,80106,97280,16154,22167,4609,2551,840,227,Tag0,unknown
1499247087655,0,24,5.2734375E-6,41,74,46,80106,97280,16154,22167,4609,2551,840,227,Tag0,unknown
1499247087656,0,32,7.03125E-6,41,74,46,80106,97280,16154,22167,4609,2551,840,227,Tag0,unknown
1499247087656,0,35,7.6904296875E-6,41,74,46,80106,97280,16154,22167,4609,2551,840,227,Tag0,unknown
1499247087657,0,37,8.1298828125E-6,41,74,46,80106,97280,16154,22167,4609,2551,840,227,Tag0,unknown
1499247087657,0,48,1.0546875E-5,41,74,46,80106,97280,16154,22167,4609,2551,840,227,Tag0,unknown
1499247087658,0,64,1.40625E-5,41,74,46,80106,97280,16154,22167,4609,2551,840,227,Tag0,unknown
1499247087658,0,72,1.58203125E-5,41,74,46,80106,97280,16154,22167,4609,2551,840,227,Tag0,unknown
1499247087658,0,71,1.56005859375E-5,41,74,46,80106,97280,16154,22167,4609,2551,840,227,Tag0,unknown
1499247087659,0,64,1.40625E-5,41,74,46,80106,97280,16154,22167,4609,2551,840,227,Tag0,unknown
1499247087659,0,66,1.4501953125E-5,41,74,46,80106,97280,16154,22167,4609,2551,840,227,Tag0,unknown
1499247087659,0,75,1.64794921875E-5,41,74,46,80106,97280,16154,22167,4609,2551,840,227,Tag0,unknown
1499247087660,0,99,2.1752929687500003E-5,41,74,46,80106,97280,16154,22167,4609,2551,840,227,Tag0,unknown
1499247087660,0,112,2.4609375E-5,41,74,46,80106,97280,16154,22167,4609,2551,840,227,Tag0,unknown
1499247087660,0,93,2.04345703125E-5,41,74,46,80106,97280,16154,22167,4609,2551,840,227,Tag0,unknown
1499247087660,0,66,1.4501953125E-5,41,74,46,80106,97280,16154,22167,4609,2551,840,227,Tag0,unknown
1499247087661,0,53,1.1645507812500002E-5,41,74,46,80106,97280,16154,22167,4609,2551,840,227,Tag0,unknown
1499247087661,0,55,1.20849609375E-5,41,74,46,80106,97280,16154,22167,4609,2551,840,227,Tag0,unknown
1499247087661,0,55,1.20849609375E-5,41,74,46,80106,97280,16154,22167,4609,2551,840,227,Tag0,unknown
1499247087662,0,51,1.1206054687499999E-5,41,74,46,80106,97280,16154,22167,4609,2551,840,227,Tag0,unknown
1499247087662,0,43,9.448242187500001E-6,41,74,46,80106,97280,16154,22167,4609,2551,840,227,Tag0,unknown
1499247087662,0,49,1.07666015625E-5,41,74,46,80106,97280,16154,22167,4609,2551,840,227,Tag0,unknown
1499247087663,0,55,1.20849609375E-5,41,74,46,80106,97280,16154,22167,4609,2551,840,227,Tag0,unknown
1499247087663,0,50,1.0986328125E-5,41,74,46,80106,97280,16154,22167,4609,2551,840,227,Tag0,unknown
1499247087663,0,36,7.91015625E-6,41,74,46,80106,97280,16154,22167,4609,2551,840,227,Tag0,unknown
1499247087663,0,20,4.39453125E-6,41,74,46,80106,97280,16154,22167,4609,2551,840,227,Tag0,unknown
1499247087664,0,5,1.0986328125E-6,41,74,46,80106,97280,16154,22167,4609,2551,840,227,Tag0,unknown
1499247087664,0,17,3.7353515625000003E-6,41,74,46,80106,97280,16154,22167,4609,2551,840,227,Tag0,unknown
1499247087664,0,41,9.008789062499999E-6,41,74,46,80106,97280,16154,22167,4609,2551,840,227,Tag0,unknown
1499247087665,0,51,1.1206054687499999E-5,41,74,46,80106,97280,16154,22167,4609,2551,840,227,Tag0,unknown
1499247087666,0,49,1.07666015625E-5,41,74,46,80106,97280,16154,22167,4609,2551,840,227,Tag0,unknown
1499247087666,0,48,1.0546875E-5,41,74,46,80106,97280,16154,22167,4609,2551,840,227,Tag0,unknown
1499247087666,0,49,1.07666015625E-5,41,74,46,80106,97280,16154,22167,4609,2551,840,227,Tag0,unknown
1499247087667,0,65,1.42822265625E-5,41,74,46,80106,97280,16154,22167,4609,2551,840,227,Tag0,unknown
1499247087667,0,82,1.8017578124999998E-5,41,74,46,80106,97280,16154,22167,4609,2551,840,227,Tag0,unknown
1499247087667,0,77,1.69189453125E-5,41,74,46,80106,97280,16154,22167,4609,2551,840,227,Tag0,unknown
1499247087667,0,81,1.77978515625E-5,41,74,46,80106,97280,16154,22167,4609,2551,840,227,Tag0,unknown
1499247087668,0,93,2.04345703125E-5,41,74,46,80106,97280,16154,22167,4609,2551,840,227,Tag0,unknown
1499247087668,0,100,2.197265625E-5,41,74,46,80106,97280,16154,22167,4609,2551,840,227,Tag0,unknown
1499247087668,0,82,1.8017578124999998E-5,41,74,46,80106,97280,16154,22167,4609,2551,840,227,Tag0,unknown
1499247087669,0,59,1.29638671875E-5,41,74,46,80106,97280,16154,22167,4609,2551,840,227,Tag0,unknown
1499247087669,0,59,1.29638671875E-5,41,74,46,80106,97280,16154,22167,4609,2551,840,227,Tag0,unknown
1499247087669,0,70,1.5380859375E-5,41,74,46,80106,97280,16154,22167,4609,2551,840,227,Tag0,unknown
1499247087670,0,69,1.51611328125E-5,41,74,46,80106,97280,16154,22167,4609,2551,840,227,Tag0,unknown
1499247087670,0,57,1.2524414062500001E-5,41,74,46,80106,97280,16154,22167,4609,2551,840,227,Tag0,unknown
1499247087670,0,51,1.1206054687499999E-5,41,74,46,80106,97280,16154,22167,4609,2551,840,227,Tag0,unknown
1499247087671,0,52,1.142578125E-5,41,74,46,80106,97280,16154,22167,4609,2551,840,227,Tag0,unknown
1499247087671,0,50,1.0986328125E-5,41,74,46,80106,97280,16154,22167,4609,2551,840,227,Tag0,unknown
1499247087671,0,44,9.66796875E-6,41,74,46,80106,97280,16154,22167,4609,2551,840,227,Tag0,unknown
1499247087672,0,37,8.1298828125E-6,41,74,46,80106,97280,16154,22167,4609,2551,840,227,Tag0,unknown
1499247087672,0,27,5.9326171875000005E-6,41,74,46,80106,97280,16154,22167,4609,2551,840,227,Tag0,unknown
1499247087672,0,24,5.2734375E-6,41,74,46,80106,97280,16154,22167,4609,2551,840,227,Tag0,unknown
1499247087673,0,16,3.515625E-6,41,74,46,80106,97280,16154,22167,4609,2551,840,227,Tag0,unknown
1499247087673,0,1,2.197265625E-7,41,74,46,80106,97280,16154,22167,4609,2551,840,227,Tag0,unknown
1499247087674,0,-261,-5.73486328125E-5,41,74,46,80106,97280,16154,22167,4609,2551,840,227,Tag0,unknown
1499247087674,0,1,2.197265625E-7,41,74,46,80106,97280,16154,22167,4609,2551,840,227,Tag0,unknown
1499247087674,0,12,2.63671875E-6,41,74,46,80106,97280,16154,22167,4609,2551,840,227,Tag0,unknown
1499247087675,0,27,5.9326171875000005E-6,41,74,46,80106,97280,16154,22167,4609,2551,840,227,Tag0,unknown
1499247087675,0,34,7.4707031250000005E-6,41,74,46,80106,97280,16154,22167,4609,2551,840,227,Tag0,unknown
1499247087675,0,20,4.39453125E-6,41,74,46,80106,97280,16154,22167,4609,2551,840,227,Tag0,unknown
1499247087676,0,5,1.0986328125E-6,41,74,46,80106,97280,16154,22167,4609,2551,840,227,Tag0,unknown
1499247087676,0,12,2.63671875E-6,41,74,46,80106,97280,16154,22167,4609,2551,840,227,Tag0,unknown
1499247087676,0,35,7.6904296875E-6,41,74,46,80106,97280,16154,22167,4609,2551,840,227,Tag0,unknown
1499247087677,0,52,1.142578125E-5,41,74,46,80106,97280,16154,22167,4609,2551,840,227,Tag0,unknown
1499247087677,0,53,1.1645507812500002E-5,41,74,46,80106,97280,16154,22167,4609,2551,840,227,Tag0,unknown
1499247087677,0,28,6.15234375E-6,41,74,46,80106,97280,16154,22167,4609,2551,840,227,Tag0,unknown
1499247087678,0,8,1.7578125E-6,41,74,46,80106,97280,16154,22167,4609,2551,840,227,Tag0,unknown
1499247087678,0,2,4.39453125E-7,41,74,46,80106,97280,16154,22167,4609,2551,840,227,Tag0,unknown
1499247087678,0,-257,-5.64697265625E-5,41,74,46,80106,97280,16154,22167,4609,2551,840,227,Tag0,unknown
1499247087679,0,-260,-5.712890625E-5,41,74,46,80106,97280,16154,22167,4609,2551,840,227,Tag0,unknown
1499247087679,0,-262,-5.7568359375E-5,41,74,46,80106,97280,16154,22167,4609,2551,840,227,Tag0,unknown
1499247087679,0,-264,-5.80078125E-5,41,74,46,80106,97280,16154,22167,4609,2551,840,227,Tag0,unknown
1499247087680,0,-263,-5.7788085937500005E-5,41,74,46,80106,97280,16154,22167,4609,2551,840,227,Tag0,unknown
1499247087680,0,-268,-5.8886718750000006E-5,41,74,46,80106,97280,16154,22167,4609,2551,840,227,Tag0,unknown
1499247087680,0,-269,-5.9106445312499996E-5,41,74,46,80106,97280,16154,22167,4609,2551,840,227,Tag0,unknown
1499247087681,0,10,2.197265625E-6,41,74,46,80106,97280,16154,22167,4609,2551,840,227,Tag0,unknown
1499247087681,0,44,9.66796875E-6,41,74,46,80106,97280,16154,22167,4609,2551,840,227,Tag0,unknown
1499247087681,0,65,1.42822265625E-5,41,74,46,80106,97280,16154,22167,4609,2551,840,227,Tag0,unknown
1499247087682,0,70,1.5380859375E-5,41,74,46,80106,97280,16154,22167,4609,2551,840,227,Tag0,unknown
1499247087682,0,86,1.8896484375000003E-5,41,74,46,80106,97280,16154,22167,4609,2551,840,227,Tag0,unknown
1499247087683,0,96,2.109375E-5,41,74,46,80106,97280,16154,22167,4609,2551,840,227,Tag0,unknown
1499247087683,0,91,1.99951171875E-5,41,74,46,80106,97280,16154,22167,4609,2551,840,227,Tag0,unknown
1499247087683,0,92,2.021484375E-5,41,74,46,80106,97280,16154,22167,4609,2551,840,227,Tag0,unknown
1499247087684,0,106,2.3291015625000003E-5,41,74,46,80106,97280,16154,22167,4609,2551,840,227,Tag0,unknown
1499247087684,0,125,2.74658203125E-5,41,74,46,80106,97280,16154,22167,4609,2551,840,227,Tag0,unknown
1499247087685,0,123,2.70263671875E-5,41,74,46,80106,97280,16154,22167,4609,2551,840,227,Tag0,unknown
1499247087685,0,100,2.197265625E-5,41,74,46,80106,97280,16154,22167,4609,2551,840,227,Tag0,unknown
1499247087685,0,82,1.8017578124999998E-5,41,74,46,80106,97280,16154,22167,4609,2551,840,227,Tag0,unknown
1499247087686,0,80,1.7578125E-5,41,74,46,80106,97280,16154,22167,4609,2551,840,227,Tag0,unknown
1499247087686,0,81,1.77978515625E-5,41,74,46,80106,97280,16154,22167,4609,2551,840,227,Tag0,unknown
1499247087687,0,75,1.64794921875E-5,41,74,46,80106,97280,16154,22167,4609,2551,840,227,Tag0,unknown
1499247087687,0,64,1.40625E-5,41,74,46,80106,97280,16154,22167,4609,2551,840,227,Tag0,unknown
1499247087687,0,49,1.07666015625E-5,41,74,46,80106,97280,16154,22167,4609,2551,840,227,Tag0,unknown
1499247087688,0,26,5.712890625E-6,41,74,46,80106,97280,16154,22167,4609,2551,840,227,Tag0,unknown
1499247087688,0,-259,-5.69091796875E-5,41,74,46,80106,97280,16154,22167,4609,2551,840,227,Tag0,unknown
1499247087688,0,-279,-6.13037109375E-5,41,74,46,80106,97280,16154,22167,4609,2551,840,227,Tag0,unknown
1499247087689,0,-265,-5.82275390625E-5,41,74,46,80106,97280,16154,22167,4609,2551,840,227,Tag0,unknown
1499247087689,0,2,4.39453125E-7,41,74,46,80106,97280,16154,22167,4609,2551,840,227,Tag0,unknown
1499247087689,0,-269,-5.9106445312499996E-5,41,74,46,80106,97280,16154,22167,4609,2551,840,227,Tag0,unknown
1499247087690,0,-276,-6.064453125E-5,41,74,46,80106,97280,16154,22167,4609,2551,840,227,Tag0,unknown
1499247087690,0,-269,-5.9106445312499996E-5,41,74,46,80106,97280,16154,22167,4609,2551,840,227,Tag0,unknown
1499247087690,0,-258,-5.6689453125000004E-5,41,74,46,80106,97280,16154,22167,4609,2551,840,227,Tag0,unknown
1499247087691,0,8,1.7578125E-6,41,74,46,80106,97280,16154,22167,4609,2551,840,227,Tag0,unknown
1499247087691,0,18,3.955078125E-6,41,74,46,80106,97280,16154,22167,4609,2551,840,227,Tag0,unknown
1499247087691,0,26,5.712890625E-6,41,74,46,80106,97280,16154,22167,4609,2551,840,227,Tag0,unknown
1499247087692,0,39,8.5693359375E-6,41,74,46,80106,97280,16154,22167,4609,2551,840,227,Tag0,unknown
1499247087692,0,53,1.1645507812500002E-5,41,74,46,80106,97280,16154,22167,4609,2551,840,227,Tag0,unknown
1499247087692,0,58,1.2744140625E-5,41,74,46,80106,97280,16154,22167,4609,2551,840,227,Tag0,unknown
1499247087693,0,53,1.1645507812500002E-5,41,74,46,80106,97280,16154,22167,4609,2551,840,227,Tag0,unknown
1499247087693,0,42,9.228515625000002E-6,41,74,46,80106,97280,16154,22167,4609,2551,840,227,Tag0,unknown
1499247087693,0,39,8.5693359375E-6,41,74,46,80106,97280,16154,22167,4609,2551,840,227,Tag0,unknown
1499247087694,0,38,8.349609375E-6,41,74,46,80106,97280,16154,22167,4609,2551,840,227,Tag0,unknown
1499247087694,0,35,7.6904296875E-6,41,74,46,80106,97280,16154,22167,4609,2551,840,227,Tag0,unknown
1499247087694,0,42,9.228515625000002E-6,41,74,46,80106,97280,16154,22167,4609,2551,840,227,Tag0,unknown
1499247087694,0,57,1.2524414062500001E-5,41,74,46,80106,97280,16154,22167,4609,2551,840,227,Tag0,unknown
1499247087695,0,69,1.51611328125E-5,41,74,46,80106,97280,16154,22167,4609,2551,840,227,Tag0,unknown
1499247087695,0,70,1.5380859375E-5,41,74,46,80106,97280,16154,22167,4609,2551,840,227,Tag0,unknown
1499247087696,0,60,1.318359375E-5,41,74,46,80106,97280,16154,22167,4609,2551,840,227,Tag0,unknown
1499247087697,0,51,1.1206054687499999E-5,41,74,46,80106,97280,16154,22167,4609,2551,840,227,Tag0,unknown
1499247087697,0,54,1.1865234375000001E-5,41,74,46,80106,97280,16154,22167,4609,2551,840,227,Tag0,unknown
1499247087697,0,61,1.34033203125E-5,41,74,46,80106,97280,16154,22167,4609,2551,840,227,Tag0,unknown
1499247087698,0,60,1.318359375E-5,41,74,46,80106,97280,16154,22167,4609,2551,840,227,Tag0,unknown
1499247087698,0,58,1.2744140625E-5,41,74,46,80106,97280,16154,22167,4609,2551,840,227,Tag0,unknown
1499247087698,0,52,1.142578125E-5,41,74,46,80106,97280,16154,22167,4609,2551,840,227,Tag0,unknown
1499247087699,0,44,9.66796875E-6,41,74,46,80106,97280,16154,22167,4609,2551,840,227,Tag0,unknown
1499247087699,0,52,1.142578125E-5,41,74,46,80106,97280,16154,22167,4609,2551,840,227,Tag0,unknown
1499247087699,0,76,1.669921875E-5,41,74,46,80106,97280,16154,22167,4609,2551,840,227,Tag0,unknown
1499247087699,0,105,2.30712890625E-5,41,74,46,80106,97280,16154,22167,4609,2551,840,227,Tag0,unknown
1499247087700,0,118,2.5927734375E-5,41,74,46,80106,97280,16154,22167,4609,2551,840,227,Tag0,unknown
1499247087700,0,121,2.6586914062500003E-5,41,74,46,80106,97280,16154,22167,4609,2551,840,227,Tag0,unknown
1499247087700,0,125,2.74658203125E-5,41,74,46,80106,97280,16154,22167,4609,2551,840,227,Tag0,unknown
1499247087700,0,-123,-2.70263671875E-5,41,74,46,80106,97280,16154,22167,4609,2551,840,227,Tag0,unknown
1499247087701,0,-119,-2.6147460937500004E-5,41,74,46,80106,97280,16154,22167,4609,2551,840,227,Tag0,unknown
1499247087701,0,-117,-2.5708007812499998E-5,41,74,46,80106,97280,16154,22167,4609,2551,840,227,Tag0,unknown
1499247087701,0,-112,-2.4609375E-5,41,74,46,80106,97280,16154,22167,4609,2551,840,227,Tag0,unknown
1499247087701,0,-109,-2.39501953125E-5,41,74,46,80106,97280,16154,22167,4609,2551,840,227,Tag0,unknown
1499247087702,0,-106,-2.3291015625000003E-5,41,74,46,80106,97280,16154,22167,4609,2551,840,227,Tag0,unknown
1499247087702,0,-108,-2.3730468750000002E-5,41,74,46,80106,97280,16154,22167,4609,2551,840,227,Tag0,unknown
1499247087702,0,-123,-2.70263671875E-5,41,74,46,80106,97280,16154,22167,4609,2551,840,227,Tag0,unknown
1499247087703,0,106,2.3291015625000003E-5,41,74,46,80106,97280,16154,22167,4609,2551,840,227,Tag0,unknown
1499247087703,0,89,1.95556640625E-5,41,74,46,80106,97280,16154,22167,4609,2551,840,227,Tag0,unknown
1499247087703,0,85,1.86767578125E-5,41,74,46,80106,97280,16154,22167,4609,2551,840,227,Tag0,unknown
1499247087703,0,88,1.93359375E-5,41,74,46,80106,97280,16154,22167,4609,2551,840,227,Tag0,unknown
1499247087704,0,98,2.1533203125E-5,41,74,46,80106,97280,16154,22167,4609,2551,840,227,Tag0,unknown
1499247087704,0,96,2.109375E-5,41,74,46,80106,97280,16154,22167,4609,2551,840,227,Tag0,unknown
1499247087704,0,91,1.99951171875E-5,41,74,46,80106,97280,16154,22167,4609,2551,840,227,Tag0,unknown
1499247087704,0,83,1.82373046875E-5,41,74,46,80106,97280,16154,22167,4609,2551,840,227,Tag0,unknown
1499247087705,0,68,1.4941406250000001E-5,41,74,46,80106,97280,16154,22167,4609,2551,840,227,Tag0,unknown
1499247087705,0,54,1.1865234375000001E-5,41,74,46,80106,97280,16154,22167,4609,2551,840,227,Tag0,unknown
1499247087705,0,48,1.0546875E-5,41,74,46,80106,97280,16154,22167,4609,2551,840,227,Tag0,unknown
1499247087706,0,48,1.0546875E-5,41,74,46,80106,97280,16154,22167,4609,2551,840,227,Tag0,unknown
1499247087707,0,55,1.20849609375E-5,41,74,46,80106,97280,16154,22167,4609,2551,840,227,Tag0,unknown
1499247087707,0,60,1.318359375E-5,41,74,46,80106,97280,16154,22167,4609,2551,840,227,Tag0,unknown
1499247087707,0,54,1.1865234375000001E-5,41,74,46,80106,97280,16154,22167,4609,2551,840,227,Tag0,unknown
1499247087707,0,58,1.2744140625E-5,41,74,46,80106,97280,16154,22167,4609,2551,840,227,Tag0,unknown
1499247087708,0,70,1.5380859375E-5,41,74,46,80106,97280,16154,22167,4609,2551,840,227,Tag0,unknown
1499247087708,0,74,1.6259765625E-5,41,74,46,80106,97280,16154,22167,4609,2551,840,227,Tag0,unknown
1499247087708,0,69,1.51611328125E-5,41,74,46,80106,97280,16154,22167,4609,2551,840,227,Tag0,unknown
1499247087708,0,52,1.142578125E-5,41,74,46,80106,97280,16154,22167,4609,2551,840,227,Tag0,unknown
1499247087709,0,41,9.008789062499999E-6,41,74,46,80106,97280,16154,22167,4609,2551,840,227,Tag0,unknown
1499247087709,0,55,1.20849609375E-5,41,74,46,80106,97280,16154,22167,4609,2551,840,227,Tag0,unknown
1499247087709,0,67,1.4721679687500002E-5,41,74,46,80106,97280,16154,22167,4609,2551,840,227,Tag0,unknown
1499247087709,0,56,1.23046875E-5,41,74,46,80106,97280,16154,22167,4609,2551,840,227,Tag0,unknown
1499247087710,0,48,1.0546875E-5,41,74,46,80106,97280,16154,22167,4609,2551,840,227,Tag0,unknown
1499247087710,0,44,9.66796875E-6,41,74,46,80106,97280,16154,22167,4609,2551,840,227,Tag0,unknown
1499247087710,0,53,1.1645507812500002E-5,41,74,46,80106,97280,16154,22167,4609,2551,840,227,Tag0,unknown
1499247087711,0,71,1.56005859375E-5,41,74,46,80106,97280,16154,22167,4609,2551,840,227,Tag0,unknown
1499247087733,0,82,1.8017578124999998E-5,30,60,46,464732,455243,16753312,16745335,16764857,28718,6668,1603,Tag0,unknown
1499247087733,0,76,1.669921875E-5,30,60,46,464732,455243,16753312,16745335,16764857,28718,6668,1603,Tag0,unknown
1499247087734,0,67,1.4721679687500002E-5,30,60,46,464732,455243,16753312,16745335,16764857,28718,6668,1603,Tag0,unknown
1499247087734,0,68,1.4941406250000001E-5,30,60,46,464732,455243,16753312,16745335,16764857,28718,6668,1603,Tag0,unknown
1499247087734,0,77,1.69189453125E-5,30,60,46,464732,455243,16753312,16745335,16764857,28718,6668,1603,Tag0,unknown
1499247087735,0,81,1.77978515625E-5,30,60,46,464732,455243,16753312,16745335,16764857,28718,6668,1603,Tag0,unknown
1499247087735,0,69,1.51611328125E-5,30,60,46,464732,455243,16753312,16745335,16764857,28718,6668,1603,Tag0,unknown
1499247087735,0,65,1.42822265625E-5,30,60,46,464732,455243,16753312,16745335,16764857,28718,6668,1603,Tag0,unknown
1499247087736,0,75,1.64794921875E-5,30,60,46,464732,455243,16753312,16745335,16764857,28718,6668,1603,Tag0,unknown
1499247087736,0,89,1.95556640625E-5,30,60,46,464732,455243,16753312,16745335,16764857,28718,6668,1603,Tag0,unknown
1499247087736,0,87,1.91162109375E-5,30,60,46,464732,455243,16753312,16745335,16764857,28718,6668,1603,Tag0,unknown
1499247087737,0,75,1.64794921875E-5,30,60,46,464732,455243,16753312,16745335,16764857,28718,6668,1603,Tag0,unknown
1499247087737,0,74,1.6259765625E-5,30,60,46,464732,455243,16753312,16745335,16764857,28718,6668,1603,Tag0,unknown
1499247087737,0,82,1.8017578124999998E-5,30,60,46,464732,455243,16753312,16745335,16764857,28718,6668,1603,Tag0,unknown
1499247087737,0,84,1.8457031250000004E-5,30,60,46,464732,455243,16753312,16745335,16764857,28718,6668,1603,Tag0,unknown
1499247087738,0,80,1.7578125E-5,30,60,46,464732,455243,16753312,16745335,16764857,28718,6668,1603,Tag0,unknown
1499247087738,0,65,1.42822265625E-5,30,60,46,464732,455243,16753312,16745335,16764857,28718,6668,1603,Tag0,unknown
1499247087738,0,52,1.142578125E-5,30,60,46,464732,455243,16753312,16745335,16764857,28718,6668,1603,Tag0,unknown
1499247087738,0,65,1.42822265625E-5,30,60,46,464732,455243,16753312,16745335,16764857,28718,6668,1603,Tag0,unknown
1499247087739,0,82,1.8017578124999998E-5,30,60,46,464732,455243,16753312,16745335,16764857,28718,6668,1603,Tag0,unknown
1499247087739,0,86,1.8896484375000003E-5,30,60,46,464732,455243,16753312,16745335,16764857,28718,6668,1603,Tag0,unknown
1499247087739,0,89,1.95556640625E-5,30,60,46,464732,455243,16753312,16745335,16764857,28718,6668,1603,Tag0,unknown
1499247087739,0,100,2.197265625E-5,30,60,46,464732,455243,16753312,16745335,16764857,28718,6668,1603,Tag0,unknown
1499247087740,0,113,2.48291015625E-5,30,60,46,464732,455243,16753312,16745335,16764857,28718,6668,1603,Tag0,unknown
1499247087740,0,-120,-2.63671875E-5,30,60,46,464732,455243,16753312,16745335,16764857,28718,6668,1603,Tag0,unknown
1499247087740,0,-95,-2.08740234375E-5,30,60,46,464732,455243,16753312,16745335,16764857,28718,6668,1603,Tag0,unknown
1499247087741,0,-87,-1.91162109375E-5,30,60,46,464732,455243,16753312,16745335,16764857,28718,6668,1603,Tag0,unknown
1499247087741,0,-80,-1.7578125E-5,30,60,46,464732,455243,16753312,16745335,16764857,28718,6668,1603,Tag0,unknown
1499247087741,0,-78,-1.7138671875E-5,30,60,46,464732,455243,16753312,16745335,16764857,28718,6668,1603,Tag0,unknown
1499247087742,0,-80,-1.7578125E-5,30,60,46,464732,455243,16753312,16745335,16764857,28718,6668,1603,Tag0,unknown
1499247087742,0,-86,-1.8896484375000003E-5,30,60,46,464732,455243,16753312,16745335,16764857,28718,6668,1603,Tag0,unknown
1499247087742,0,-87,-1.91162109375E-5,30,60,46,464732,455243,16753312,16745335,16764857,28718,6668,1603,Tag0,unknown
1499247087742,0,-90,-1.9775390625E-5,30,60,46,464732,455243,16753312,16745335,16764857,28718,6668,1603,Tag0,unknown
1499247087743,0,-104,-2.28515625E-5,30,60,46,464732,455243,16753312,16745335,16764857,28718,6668,1603,Tag0,unknown
1499247087743,0,-116,-2.548828125E-5,30,60,46,464732,455243,16753312,16745335,16764857,28718,6668,1603,Tag0,unknown
1499247087743,0,-110,-2.4169921875E-5,30,60,46,464732,455243,16753312,16745335,16764857,28718,6668,1603,Tag0,unknown
1499247087743,0,-108,-2.3730468750000002E-5,30,60,46,464732,455243,16753312,16745335,16764857,28718,6668,1603,Tag0,unknown
1499247087744,0,-120,-2.63671875E-5,30,60,46,464732,455243,16753312,16745335,16764857,28718,6668,1603,Tag0,unknown
1499247087744,0,116,2.548828125E-5,30,60,46,464732,455243,16753312,16745335,16764857,28718,6668,1603,Tag0,unknown
1499247087744,0,89,1.95556640625E-5,30,60,46,464732,455243,16753312,16745335,16764857,28718,6668,1603,Tag0,unknown
1499247087747,0,76,1.669921875E-5,30,60,46,464732,455243,16753312,16745335,16764857,28718,6668,1603,Tag0,unknown
1499247087748,0,74,1.6259765625E-5,30,60,46,464732,455243,16753312,16745335,16764857,28718,6668,1603,Tag0,unknown
1499247087748,0,77,1.69189453125E-5,30,60,46,464732,455243,16753312,16745335,16764857,28718,6668,1603,Tag0,unknown
1499247087748,0,92,2.021484375E-5,30,60,46,464732,455243,16753312,16745335,16764857,28718,6668,1603,Tag0,unknown
1499247087749,0,114,2.5048828125000003E-5,30,60,46,464732,455243,16753312,16745335,16764857,28718,6668,1603,Tag0,unknown
1499247087749,0,-119,-2.6147460937500004E-5,30,60,46,464732,455243,16753312,16745335,16764857,28718,6668,1603,Tag0,unknown
1499247087749,0,-104,-2.28515625E-5,30,60,46,464732,455243,16753312,16745335,16764857,28718,6668,1603,Tag0,unknown
1499247087752,0,-104,-2.28515625E-5,30,60,46,464732,455243,16753312,16745335,16764857,28718,6668,1603,Tag0,unknown
1499247087752,0,-109,-2.39501953125E-5,30,60,46,464732,455243,16753312,16745335,16764857,28718,6668,1603,Tag0,unknown
1499247087753,0,-119,-2.6147460937500004E-5,30,60,46,464732,455243,16753312,16745335,16764857,28718,6668,1603,Tag0,unknown
1499247087753,0,-126,-2.7685546875E-5,30,60,46,464732,455243,16753312,16745335,16764857,28718,6668,1603,Tag0,unknown
1499247087753,0,-125,-2.74658203125E-5,30,60,46,464732,455243,16753312,16745335,16764857,28718,6668,1603,Tag0,unknown
1499247087753,0,-123,-2.70263671875E-5,30,60,46,464732,455243,16753312,16745335,16764857,28718,6668,1603,Tag0,unknown
1499247087754,0,124,2.724609375E-5,30,60,46,464732,455243,16753312,16745335,16764857,28718,6668,1603,Tag0,unknown
1499247087754,0,112,2.4609375E-5,30,60,46,464732,455243,16753312,16745335,16764857,28718,6668,1603,Tag0,unknown
1499247087754,0,89,1.95556640625E-5,30,60,46,464732,455243,16753312,16745335,16764857,28718,6668,1603,Tag0,unknown
1499247087754,0,83,1.82373046875E-5,30,60,46,464732,455243,16753312,16745335,16764857,28718,6668,1603,Tag0,unknown
1499247087768,0,98,2.1533203125E-5,30,60,46,464732,455243,16753312,16745335,16764857,28718,6668,1603,Tag0,unknown
1499247087768,0,114,2.5048828125000003E-5,30,60,46,464732,455243,16753312,16745335,16764857,28718,6668,1603,Tag0,unknown
1499247087769,0,121,2.6586914062500003E-5,30,60,46,464732,455243,16753312,16745335,16764857,28718,6668,1603,Tag0,unknown
1499247087769,0,118,2.5927734375E-5,30,60,46,464732,455243,16753312,16745335,16764857,28718,6668,1603,Tag0,unknown
1499247087770,0,107,2.35107421875E-5,30,60,46,464732,455243,16753312,16745335,16764857,28718,6668,1603,Tag0,unknown
1499247087770,0,99,2.1752929687500003E-5,30,60,46,464732,455243,16753312,16745335,16764857,28718,6668,1603,Tag0,unknown
1499247087770,0,84,1.8457031250000004E-5,30,60,46,464732,455243,16753312,16745335,16764857,28718,6668,1603,Tag0,unknown
1499247087770,0,76,1.669921875E-5,30,60,46,464732,455243,16753312,16745335,16764857,28718,6668,1603,Tag0,unknown
1499247087771,0,76,1.669921875E-5,30,60,46,464732,455243,16753312,16745335,16764857,28718,6668,1603,Tag0,unknown
1499247087771,0,80,1.7578125E-5,30,60,46,464732,455243,16753312,16745335,16764857,28718,6668,1603,Tag0,unknown
1499247087771,0,84,1.8457031250000004E-5,30,60,46,464732,455243,16753312,16745335,16764857,28718,6668,1603,Tag0,unknown
1499247087772,0,90,1.9775390625E-5,30,60,46,464732,455243,16753312,16745335,16764857,28718,6668,1603,Tag0,unknown
1499247087772,0,90,1.9775390625E-5,30,60,46,464732,455243,16753312,16745335,16764857,28718,6668,1603,Tag0,unknown
1499247087773,0,88,1.93359375E-5,30,60,46,464732,455243,16753312,16745335,16764857,28718,6668,1603,Tag0,unknown
1499247087773,0,96,2.109375E-5,30,60,46,464732,455243,16753312,16745335,16764857,28718,6668,1603,Tag0,unknown
1499247087773,0,96,2.109375E-5,30,60,46,464732,455243,16753312,16745335,16764857,28718,6668,1603,Tag0,unknown
1499247087774,0,87,1.91162109375E-5,30,60,46,464732,455243,16753312,16745335,16764857,28718,6668,1603,Tag0,unknown
1499247087774,0,81,1.77978515625E-5,30,60,46,464732,455243,16753312,16745335,16764857,28718,6668,1603,Tag0,unknown
1499247087774,0,73,1.6040039062500002E-5,30,60,46,464732,455243,16753312,16745335,16764857,28718,6668,1603,Tag0,unknown
1499247087774,0,65,1.42822265625E-5,30,60,46,464732,455243,16753312,16745335,16764857,28718,6668,1603,Tag0,unknown
1499247087775,0,54,1.1865234375000001E-5,30,60,46,464732,455243,16753312,16745335,16764857,28718,6668,1603,Tag0,unknown
1499247087775,0,48,1.0546875E-5,30,60,46,464732,455243,16753312,16745335,16764857,28718,6668,1603,Tag0,unknown
1499247087775,0,45,9.8876953125E-6,30,60,46,464732,455243,16753312,16745335,16764857,28718,6668,1603,Tag0,unknown
1499247087776,0,70,1.5380859375E-5,30,60,46,464732,455243,16753312,16745335,16764857,28718,6668,1603,Tag0,unknown
1499247087776,0,97,2.13134765625E-5,30,60,46,464732,455243,16753312,16745335,16764857,28718,6668,1603,Tag0,unknown
1499247087776,0,103,2.26318359375E-5,30,60,46,464732,455243,16753312,16745335,16764857,28718,6668,1603,Tag0,unknown
1499247087776,0,97,2.13134765625E-5,30,60,46,464732,455243,16753312,16745335,16764857,28718,6668,1603,Tag0,unknown
1499247087777,0,85,1.86767578125E-5,30,60,46,464732,455243,16753312,16745335,16764857,28718,6668,1603,Tag0,unknown
1499247087777,0,72,1.58203125E-5,30,60,46,464732,455243,16753312,16745335,16764857,28718,6668,1603,Tag0,unknown
1499247087777,0,53,1.1645507812500002E-5,30,60,46,464732,455243,16753312,16745335,16764857,28718,6668,1603,Tag0,unknown
1499247087778,0,42,9.228515625000002E-6,30,60,46,464732,455243,16753312,16745335,16764857,28718,6668,1603,Tag0,unknown
1499247087778,0,52,1.142578125E-5,30,60,46,464732,455243,16753312,16745335,16764857,28718,6668,1603,Tag0,unknown
1499247087827,0,53,1.1645507812500002E-5,30,60,46,464732,455243,16753312,16745335,16764857,28718,6668,1603,Tag0,unknown
1499247087838,0,40,8.7890625E-6,30,60,46,464732,455243,16753312,16745335,16764857,28718,6668,1603,Tag0,unknown
1499247087839,0,26,5.712890625E-6,30,60,46,464732,455243,16753312,16745335,16764857,28718,6668,1603,Tag0,unknown
1499247087840,0,25,5.4931640625E-6,30,60,46,464732,455243,16753312,16745335,16764857,28718,6668,1603,Tag0,unknown
1499247087841,0,36,7.91015625E-6,30,60,46,464732,455243,16753312,16745335,16764857,28718,6668,1603,Tag0,unknown
1499247087842,0,49,1.07666015625E-5,30,60,46,464732,455243,16753312,16745335,16764857,28718,6668,1603,Tag0,unknown
1499247087843,0,41,9.008789062499999E-6,30,60,46,464732,455243,16753312,16745335,16764857,28718,6668,1603,Tag0,unknown
1499247087843,0,35,7.6904296875E-6,30,60,46,464732,455243,16753312,16745335,16764857,28718,6668,1603,Tag0,unknown
1499247087844,0,51,1.1206054687499999E-5,30,60,46,464732,455243,16753312,16745335,16764857,28718,6668,1603,Tag0,unknown
1499247087849,0,59,1.29638671875E-5,30,60,46,464732,455243,16753312,16745335,16764857,28718,6668,1603,Tag0,unknown
1499247087854,0,52,1.142578125E-5,30,60,46,464732,455243,16753312,16745335,16764857,28718,6668,1603,Tag0,unknown
1499247087856,0,50,1.0986328125E-5,30,60,46,464732,455243,16753312,16745335,16764857,28718,6668,1603,Tag0,unknown
1499247087857,0,57,1.2524414062500001E-5,30,60,46,464732,455243,16753312,16745335,16764857,28718,6668,1603,Tag0,unknown
1499247087857,0,70,1.5380859375E-5,30,60,46,464732,455243,16753312,16745335,16764857,28718,6668,1603,Tag0,unknown
1499247087858,0,90,1.9775390625E-5,30,60,46,464732,455243,16753312,16745335,16764857,28718,6668,1603,Tag0,unknown
1499247087858,0,104,2.28515625E-5,30,60,46,464732,455243,16753312,16745335,16764857,28718,6668,1603,Tag0,unknown
1499247087858,0,107,2.35107421875E-5,30,60,46,464732,455243,16753312,16745335,16764857,28718,6668,1603,Tag0,unknown
1499247087858,0,106,2.3291015625000003E-5,30,60,46,464732,455243,16753312,16745335,16764857,28718,6668,1603,Tag0,unknown
1499247087859,0,105,2.30712890625E-5,30,60,46,464732,455243,16753312,16745335,16764857,28718,6668,1603,Tag0,unknown
1499247087859,0,115,2.52685546875E-5,30,60,46,464732,455243,16753312,16745335,16764857,28718,6668,1603,Tag0,unknown
1499247087859,0,118,2.5927734375E-5,30,60,46,464732,455243,16753312,16745335,16764857,28718,6668,1603,Tag0,unknown
1499247087860,0,112,2.4609375E-5,30,60,46,464732,455243,16753312,16745335,16764857,28718,6668,1603,Tag0,unknown
1499247087860,0,106,2.3291015625000003E-5,30,60,46,464732,455243,16753312,16745335,16764857,28718,6668,1603,Tag0,unknown
1499247087860,0,109,2.39501953125E-5,30,60,46,464732,455243,16753312,16745335,16764857,28718,6668,1603,Tag0,unknown
1499247087861,0,117,2.5708007812499998E-5,30,60,46,464732,455243,16753312,16745335,16764857,28718,6668,1603,Tag0,unknown
1499247087861,0,114,2.5048828125000003E-5,30,60,46,464732,455243,16753312,16745335,16764857,28718,6668,1603,Tag0,unknown
1499247087861,0,106,2.3291015625000003E-5,30,60,46,464732,455243,16753312,16745335,16764857,28718,6668,1603,Tag0,unknown
1499247087861,0,112,2.4609375E-5,30,60,46,464732,455243,16753312,16745335,16764857,28718,6668,1603,Tag0,unknown
1499247087862,0,118,2.5927734375E-5,30,60,46,464732,455243,16753312,16745335,16764857,28718,6668,1603,Tag0,unknown
1499247087862,0,120,2.63671875E-5,30,60,46,464732,455243,16753312,16745335,16764857,28718,6668,1603,Tag0,unknown
1499247087868,0,117,2.5708007812499998E-5,30,60,46,464732,455243,16753312,16745335,16764857,28718,6668,1603,Tag0,unknown
1499247087869,0,117,2.5708007812499998E-5,30,60,46,464732,455243,16753312,16745335,16764857,28718,6668,1603,Tag0,unknown
1499247087869,0,116,2.548828125E-5,30,60,46,464732,455243,16753312,16745335,16764857,28718,6668,1603,Tag0,unknown
1499247087870,0,121,2.6586914062500003E-5,30,60,46,464732,455243,16753312,16745335,16764857,28718,6668,1603,Tag0,unknown
1499247087870,0,-127,-2.79052734375E-5,30,60,46,464732,455243,16753312,16745335,16764857,28718,6668,1603,Tag0,unknown
1499247087870,0,119,2.6147460937500004E-5,30,60,46,464732,455243,16753312,16745335,16764857,28718,6668,1603,Tag0,unknown
1499247087871,0,100,2.197265625E-5,30,60,46,464732,455243,16753312,16745335,16764857,28718,6668,1603,Tag0,unknown
1499247087871,0,96,2.109375E-5,30,60,46,464732,455243,16753312,16745335,16764857,28718,6668,1603,Tag0,unknown
1499247087871,0,106,2.3291015625000003E-5,30,60,46,464732,455243,16753312,16745335,16764857,28718,6668,1603,Tag0,unknown
1499247087872,0,120,2.63671875E-5,30,60,46,464732,455243,16753312,16745335,16764857,28718,6668,1603,Tag0,unknown
1499247087872,0,-123,-2.70263671875E-5,30,60,46,464732,455243,16753312,16745335,16764857,28718,6668,1603,Tag0,unknown
1499247087872,0,-116,-2.548828125E-5,30,60,46,464732,455243,16753312,16745335,16764857,28718,6668,1603,Tag0,unknown
1499247087873,0,-102,-2.2412109374999998E-5,30,60,46,464732,455243,16753312,16745335,16764857,28718,6668,1603,Tag0,unknown
1499247087873,0,-85,-1.86767578125E-5,30,60,46,464732,455243,16753312,16745335,16764857,28718,6668,1603,Tag0,unknown
1499247087874,0,-89,-1.95556640625E-5,30,60,46,464732,455243,16753312,16745335,16764857,28718,6668,1603,Tag0,unknown
1499247087874,0,-126,-2.7685546875E-5,30,60,46,464732,455243,16753312,16745335,16764857,28718,6668,1603,Tag0,unknown
1499247087875,0,85,1.86767578125E-5,30,60,46,464732,455243,16753312,16745335,16764857,28718,6668,1603,Tag0,unknown
1499247087875,0,50,1.0986328125E-5,30,60,46,464732,455243,16753312,16745335,16764857,28718,6668,1603,Tag0,unknown
1499247087875,0,27,5.9326171875000005E-6,30,60,46,464732,455243,16753312,16745335,16764857,28718,6668,1603,Tag0,unknown
1499247087876,0,19,4.1748046875E-6,30,60,46,464732,455243,16753312,16745335,16764857,28718,6668,1603,Tag0,unknown
1499247087877,0,17,3.7353515625000003E-6,30,60,46,464732,455243,16753312,16745335,16764857,28718,6668,1603,Tag0,unknown
1499247087877,0,12,2.63671875E-6,30,60,46,464732,455243,16753312,16745335,16764857,28718,6668,1603,Tag0,unknown
1499247087878,0,5,1.0986328125E-6,30,60,46,464732,455243,16753312,16745335,16764857,28718,6668,1603,Tag0,unknown
1499247087878,0,7,1.5380859375E-6,30,60,46,464732,455243,16753312,16745335,16764857,28718,6668,1603,Tag0,unknown
1499247087879,0,20,4.39453125E-6,30,60,46,464732,455243,16753312,16745335,16764857,28718,6668,1603,Tag0,unknown
1499247087879,0,27,5.9326171875000005E-6,30,60,46,464732,455243,16753312,16745335,16764857,28718,6668,1603,Tag0,unknown
1499247087879,0,23,5.0537109375E-6,30,60,46,464732,455243,16753312,16745335,16764857,28718,6668,1603,Tag0,unknown
1499247087880,0,19,4.1748046875E-6,30,60,46,464732,455243,16753312,16745335,16764857,28718,6668,1603,Tag0,unknown
1499247087881,0,12,2.63671875E-6,30,60,46,464732,455243,16753312,16745335,16764857,28718,6668,1603,Tag0,unknown
1499247087881,0,12,2.63671875E-6,30,60,46,464732,455243,16753312,16745335,16764857,28718,6668,1603,Tag0,unknown
1499247087882,0,11,2.4169921875E-6,30,60,46,464732,455243,16753312,16745335,16764857,28718,6668,1603,Tag0,unknown
1499247087882,0,1,2.197265625E-7,30,60,46,464732,455243,16753312,16745335,16764857,28718,6668,1603,Tag0,unknown
1499247087882,0,-275,-6.04248046875E-5,30,60,46,464732,455243,16753312,16745335,16764857,28718,6668,1603,Tag0,unknown
1499247087883,0,-286,-6.2841796875E-5,30,60,46,464732,455243,16753312,16745335,16764857,28718,6668,1603,Tag0,unknown
1499247087917,0,-289,-6.35009765625E-5,30,60,46,464732,455243,16753312,16745335,16764857,28718,6668,1603,Tag0,unknown
1499247087937,0,-277,-6.0864257812500005E-5,30,60,46,464732,455243,16753312,16745335,16764857,28718,6668,1603,Tag0,unknown
1499247087939,0,-261,-5.73486328125E-5,30,60,46,464732,455243,16753312,16745335,16764857,28718,6668,1603,Tag0,unknown
1499247087939,0,1,2.197265625E-7,30,60,46,464732,455243,16753312,16745335,16764857,28718,6668,1603,Tag0,unknown
1499247087941,0,11,2.4169921875E-6,30,60,46,464732,455243,16753312,16745335,16764857,28718,6668,1603,Tag0,unknown
1499247087942,0,36,7.91015625E-6,30,60,46,464732,455243,16753312,16745335,16764857,28718,6668,1603,Tag0,unknown
1499247087943,0,52,1.142578125E-5,30,60,46,464732,455243,16753312,16745335,16764857,28718,6668,1603,Tag0,unknown
1499247087943,0,37,8.1298828125E-6,30,60,46,464732,455243,16753312,16745335,16764857,28718,6668,1603,Tag0,unknown
1499247087943,0,18,3.955078125E-6,30,60,46,464732,455243,16753312,16745335,16764857,28718,6668,1603,Tag0,unknown
1499247087944,0,11,2.4169921875E-6,30,60,46,464732,455243,16753312,16745335,16764857,28718,6668,1603,Tag0,unknown
1499247087944,0,17,3.7353515625000003E-6,30,60,46,464732,455243,16753312,16745335,16764857,28718,6668,1603,Tag0,unknown
1499247087947,0,11,2.4169921875E-6,30,60,46,464732,455243,16753312,16745335,16764857,28718,6668,1603,Tag0,unknown
1499247087948,0,13,2.8564453125E-6,30,60,46,464732,455243,16753312,16745335,16764857,28718,6668,1603,Tag0,unknown
1499247087949,0,24,5.2734375E-6,30,60,46,464732,455243,16753312,16745335,16764857,28718,6668,1603,Tag0,unknown
1499247087949,0,29,6.3720703125E-6,30,60,46,464732,455243,16753312,16745335,16764857,28718,6668,1603,Tag0,unknown
1499247087952,0,36,7.91015625E-6,30,60,46,464732,455243,16753312,16745335,16764857,28718,6668,1603,Tag0,unknown
1499247087953,0,34,7.4707031250000005E-6,30,60,46,464732,455243,16753312,16745335,16764857,28718,6668,1603,Tag0,unknown
1499247087953,0,22,4.833984375E-6,30,60,46,464732,455243,16753312,16745335,16764857,28718,6668,1603,Tag0,unknown
1499247087954,0,17,3.7353515625000003E-6,30,60,46,464732,455243,16753312,16745335,16764857,28718,6668,1603,Tag0,unknown
1499247087954,0,13,2.8564453125E-6,30,60,46,464732,455243,16753312,16745335,16764857,28718,6668,1603,Tag0,unknown
1499247087954,0,1,2.197265625E-7,30,60,46,464732,455243,16753312,16745335,16764857,28718,6668,1603,Tag0,unknown
1499247087955,0,-276,-6.064453125E-5,30,60,46,464732,455243,16753312,16745335,16764857,28718,6668,1603,Tag0,unknown
1499247087955,0,-286,-6.2841796875E-5,30,60,46,464732,455243,16753312,16745335,16764857,28718,6668,1603,Tag0,unknown
1499247087956,0,-286,-6.2841796875E-5,30,60,46,464732,455243,16753312,16745335,16764857,28718,6668,1603,Tag0,unknown
1499247087956,0,-275,-6.04248046875E-5,30,60,46,464732,455243,16753312,16745335,16764857,28718,6668,1603,Tag0,unknown
1499247087956,0,8,1.7578125E-6,30,60,46,464732,455243,16753312,16745335,16764857,28718,6668,1603,Tag0,unknown
1499247087957,0,26,5.712890625E-6,30,60,46,464732,455243,16753312,16745335,16764857,28718,6668,1603,Tag0,unknown
1499247087957,0,36,7.91015625E-6,30,60,46,464732,455243,16753312,16745335,16764857,28718,6668,1603,Tag0,unknown
1499247087958,0,40,8.7890625E-6,30,60,46,464732,455243,16753312,16745335,16764857,28718,6668,1603,Tag0,unknown
1499247087958,0,49,1.07666015625E-5,30,60,46,464732,455243,16753312,16745335,16764857,28718,6668,1603,Tag0,unknown
1499247087959,0,61,1.34033203125E-5,30,60,46,464732,455243,16753312,16745335,16764857,28718,6668,1603,Tag0,unknown
1499247087978,0,70,1.5380859375E-5,30,60,46,464732,455243,16753312,16745335,16764857,28718,6668,1603,Tag0,unknown
1499247087986,0,73,1.6040039062500002E-5,30,60,46,464732,455243,16753312,16745335,16764857,28718,6668,1603,Tag0,unknown
1499247087987,0,61,1.34033203125E-5,30,60,46,464732,455243,16753312,16745335,16764857,28718,6668,1603,Tag0,unknown
1499247087987,0,42,9.228515625000002E-6,30,60,46,464732,455243,16753312,16745335,16764857,28718,6668,1603,Tag0,unknown
1499247087988,0,35,7.6904296875E-6,30,60,46,464732,455243,16753312,16745335,16764857,28718,6668,1603,Tag0,unknown
1499247087988,0,43,9.448242187500001E-6,30,60,46,464732,455243,16753312,16745335,16764857,28718,6668,1603,Tag0,unknown
1499247087988,0,54,1.1865234375000001E-5,30,60,46,464732,455243,16753312,16745335,16764857,28718,6668,1603,Tag0,unknown
1499247087989,0,42,9.228515625000002E-6,30,60,46,464732,455243,16753312,16745335,16764857,28718,6668,1603,Tag0,unknown
1499247087989,0,18,3.955078125E-6,30,60,46,464732,455243,16753312,16745335,16764857,28718,6668,1603,Tag0,unknown
1499247087990,0,11,2.4169921875E-6,30,60,46,464732,455243,16753312,16745335,16764857,28718,6668,1603,Tag0,unknown
1499247087990,0,24,5.2734375E-6,30,60,46,464732,455243,16753312,16745335,16764857,28718,6668,1603,Tag0,unknown
1499247087990,0,54,1.1865234375000001E-5,30,60,46,464732,455243,16753312,16745335,16764857,28718,6668,1603,Tag0,unknown
1499247087991,0,77,1.69189453125E-5,30,60,46,464732,455243,16753312,16745335,16764857,28718,6668,1603,Tag0,unknown
1499247087991,0,71,1.56005859375E-5,30,60,46,464732,455243,16753312,16745335,16764857,28718,6668,1603,Tag0,unknown
1499247087992,0,60,1.318359375E-5,30,60,46,464732,455243,16753312,16745335,16764857,28718,6668,1603,Tag0,unknown
1499247087992,0,66,1.4501953125E-5,30,60,46,464732,455243,16753312,16745335,16764857,28718,6668,1603,Tag0,unknown
1499247087993,0,73,1.6040039062500002E-5,30,60,46,464732,455243,16753312,16745335,16764857,28718,6668,1603,Tag0,unknown
1499247087993,0,86,1.8896484375000003E-5,30,60,46,464732,455243,16753312,16745335,16764857,28718,6668,1603,Tag0,unknown
1499247087994,0,100,2.197265625E-5,30,60,46,464732,455243,16753312,16745335,16764857,28718,6668,1603,Tag0,unknown
1499247087994,0,103,2.26318359375E-5,30,60,46,464732,455243,16753312,16745335,16764857,28718,6668,1603,Tag0,unknown
1499247087994,0,98,2.1533203125E-5,30,60,46,464732,455243,16753312,16745335,16764857,28718,6668,1603,Tag0,unknown
1499247087995,0,97,2.13134765625E-5,30,60,46,464732,455243,16753312,16745335,16764857,28718,6668,1603,Tag0,unknown
1499247087995,0,89,1.95556640625E-5,30,60,46,464732,455243,16753312,16745335,16764857,28718,6668,1603,Tag0,unknown
1499247087996,0,82,1.8017578124999998E-5,30,60,46,464732,455243,16753312,16745335,16764857,28718,6668,1603,Tag0,unknown
1499247087996,0,80,1.7578125E-5,30,60,46,464732,455243,16753312,16745335,16764857,28718,6668,1603,Tag0,unknown
1499247087997,0,88,1.93359375E-5,30,60,46,464732,455243,16753312,16745335,16764857,28718,6668,1603,Tag0,unknown
1499247087997,0,98,2.1533203125E-5,30,60,46,464732,455243,16753312,16745335,16764857,28718,6668,1603,Tag0,unknown
1499247087998,0,101,2.2192382812500002E-5,30,60,46,464732,455243,16753312,16745335,16764857,28718,6668,1603,Tag0,unknown
1499247087998,0,97,2.13134765625E-5,30,60,46,464732,455243,16753312,16745335,16764857,28718,6668,1603,Tag0,unknown
1499247087999,0,96,2.109375E-5,30,60,46,464732,455243,16753312,16745335,16764857,28718,6668,1603,Tag0,unknown
1499247087999,0,112,2.4609375E-5,30,60,46,464732,455243,16753312,16745335,16764857,28718,6668,1603,Tag0,unknown
1499247087999,0,124,2.724609375E-5,30,60,46,464732,455243,16753312,16745335,16764857,28718,6668,1603,Tag0,unknown
1499247088002,0,-128,-2.8125E-5,30,60,46,464732,455243,16753312,16745335,16764857,28718,6668,1603,Tag0,unknown
1499247088002,0,115,2.52685546875E-5,30,60,46,464732,455243,16753312,16745335,16764857,28718,6668,1603,Tag0,unknown
1499247088003,0,112,2.4609375E-5,30,60,46,464732,455243,16753312,16745335,16764857,28718,6668,1603,Tag0,unknown
1499247088003,0,123,2.70263671875E-5,30,60,46,464732,455243,16753312,16745335,16764857,28718,6668,1603,Tag0,unknown
1499247088003,0,-120,-2.63671875E-5,30,60,46,464732,455243,16753312,16745335,16764857,28718,6668,1603,Tag0,unknown
1499247088004,0,-126,-2.7685546875E-5,30,60,46,464732,455243,16753312,16745335,16764857,28718,6668,1603,Tag0,unknown
1499247088004,0,103,2.26318359375E-5,30,60,46,464732,455243,16753312,16745335,16764857,28718,6668,1603,Tag0,unknown
1499247088004,0,90,1.9775390625E-5,30,60,46,464732,455243,16753312,16745335,16764857,28718,6668,1603,Tag0,unknown
1499247088004,0,87,1.91162109375E-5,30,60,46,464732,455243,16753312,16745335,16764857,28718,6668,1603,Tag0,unknown
1499247088005,0,92,2.021484375E-5,30,60,46,464732,455243,16753312,16745335,16764857,28718,6668,1603,Tag0,unknown
1499247088005,0,98,2.1533203125E-5,30,60,46,464732,455243,16753312,16745335,16764857,28718,6668,1603,Tag0,unknown
1499247088005,0,90,1.9775390625E-5,30,60,46,464732,455243,16753312,16745335,16764857,28718,6668,1603,Tag0,unknown
1499247088006,0,80,1.7578125E-5,30,60,46,464732,455243,16753312,16745335,16764857,28718,6668,1603,Tag0,unknown
1499247088006,0,66,1.4501953125E-5,30,60,46,464732,455243,16753312,16745335,16764857,28718,6668,1603,Tag0,unknown
1499247088006,0,65,1.42822265625E-5,30,60,46,464732,455243,16753312,16745335,16764857,28718,6668,1603,Tag0,unknown
1499247088006,0,67,1.4721679687500002E-5,30,60,46,464732,455243,16753312,16745335,16764857,28718,6668,1603,Tag0,unknown
1499247088007,0,66,1.4501953125E-5,30,60,46,464732,455243,16753312,16745335,16764857,28718,6668,1603,Tag0,unknown
1499247088007,0,64,1.40625E-5,30,60,46,464732,455243,16753312,16745335,16764857,28718,6668,1603,Tag0,unknown
1499247088010,0,69,1.51611328125E-5,30,60,46,464732,455243,16753312,16745335,16764857,28718,6668,1603,Tag0,unknown
1499247088011,0,84,1.8457031250000004E-5,30,60,46,464732,455243,16753312,16745335,16764857,28718,6668,1603,Tag0,unknown
1499247088011,0,90,1.9775390625E-5,30,60,46,464732,455243,16753312,16745335,16764857,28718,6668,1603,Tag0,unknown
1499247088012,0,76,1.669921875E-5,30,60,46,464732,455243,16753312,16745335,16764857,28718,6668,1603,Tag0,unknown
1499247088012,0,57,1.2524414062500001E-5,30,60,46,464732,455243,16753312,16745335,16764857,28718,6668,1603,Tag0,unknown
1499247088012,0,42,9.228515625000002E-6,30,60,46,464732,455243,16753312,16745335,16764857,28718,6668,1603,Tag0,unknown
1499247088013,0,34,7.4707031250000005E-6,30,60,46,464732,455243,16753312,16745335,16764857,28718,6668,1603,Tag0,unknown
1499247088013,0,32,7.03125E-6,30,60,46,464732,455243,16753312,16745335,16764857,28718,6668,1603,Tag0,unknown
1499247088013,0,26,5.712890625E-6,30,60,46,464732,455243,16753312,16745335,16764857,28718,6668,1603,Tag0,unknown
1499247088014,0,18,3.955078125E-6,30,60,46,464732,455243,16753312,16745335,16764857,28718,6668,1603,Tag0,unknown
1499247088014,0,6,1.318359375E-6,30,60,46,464732,455243,16753312,16745335,16764857,28718,6668,1603,Tag0,unknown
1499247088014,0,12,2.63671875E-6,30,60,46,464732,455243,16753312,16745335,16764857,28718,6668,1603,Tag0,unknown
1499247088015,0,40,8.7890625E-6,30,60,46,464732,455243,16753312,16745335,16764857,28718,6668,1603,Tag0,unknown
1499247088015,0,70,1.5380859375E-5,30,60,46,464732,455243,16753312,16745335,16764857,28718,6668,1603,Tag0,unknown
1499247088015,0,88,1.93359375E-5,30,60,46,464732,455243,16753312,16745335,16764857,28718,6668,1603,Tag0,unknown
1499247088017,0,86,1.8896484375000003E-5,30,60,46,464732,455243,16753312,16745335,16764857,28718,6668,1603,Tag0,unknown
1499247088018,0,86,1.8896484375000003E-5,30,60,46,464732,455243,16753312,16745335,16764857,28718,6668,1603,Tag0,unknown
1499247088018,0,96,2.109375E-5,30,60,46,464732,455243,16753312,16745335,16764857,28718,6668,1603,Tag0,unknown
1499247088018,0,105,2.30712890625E-5,30,60,46,464732,455243,16753312,16745335,16764857,28718,6668,1603,Tag0,unknown
1499247088019,0,113,2.48291015625E-5,30,60,46,464732,455243,16753312,16745335,16764857,28718,6668,1603,Tag0,unknown
1499247088019,0,114,2.5048828125000003E-5,30,60,46,464732,455243,16753312,16745335,16764857,28718,6668,1603,Tag0,unknown
1499247088019,0,108,2.3730468750000002E-5,30,60,46,464732,455243,16753312,16745335,16764857,28718,6668,1603,Tag0,unknown
1499247088020,0,112,2.4609375E-5,30,60,46,464732,455243,16753312,16745335,16764857,28718,6668,1603,Tag0,unknown
