timestampMs,poorSignal,eegRawValue,eegRawValueVolts,attention,meditation,blinkStrength,delta,theta,alphaLow,alphaHigh,betaLow,betaHigh,gammaLow,gammaMid,tagEvent,location
1499246933476,0,82,1.8017578124999998E-5,34,29,40,29200,2073,1825,224,1220,561,16777139,82,Tag0,unknown
1499246933478,0,77,1.69189453125E-5,34,29,40,29200,2073,1825,224,1220,561,16777139,82,Tag0,unknown
1499246933479,0,67,1.4721679687500002E-5,34,29,40,29200,2073,1825,224,1220,561,16777139,82,Tag0,unknown
1499246933479,0,59,1.29638671875E-5,34,29,40,29200,2073,1825,224,1220,561,16777139,82,Tag0,unknown
1499246933480,0,66,1.4501953125E-5,34,29,40,29200,2073,1825,224,1220,561,16777139,82,Tag0,unknown
1499246933480,0,71,1.56005859375E-5,34,29,40,29200,2073,1825,224,1220,561,16777139,82,Tag0,unknown
1499246933480,0,70,1.5380859375E-5,34,29,40,29200,2073,1825,224,1220,561,16777139,82,Tag0,unknown
1499246933481,0,57,1.2524414062500001E-5,34,29,40,29200,2073,1825,224,1220,561,16777139,82,Tag0,unknown
1499246933481,0,56,1.23046875E-5,34,29,40,29200,2073,1825,224,1220,561,16777139,82,Tag0,unknown
1499246933482,0,60,1.318359375E-5,34,29,40,29200,2073,1825,224,1220,561,16777139,82,Tag0,unknown
1499246933482,0,60,1.318359375E-5,34,29,40,29200,2073,1825,224,1220,561,16777139,82,Tag0,unknown
1499246933482,0,58,1.2744140625E-5,34,29,40,29200,2073,1825,224,1220,561,16777139,82,Tag0,unknown
1499246933483,0,64,1.40625E-5,34,29,40,29200,2073,1825,224,1220,561,16777139,82,Tag0,unknown
1499246933483,0,65,1.42822265625E-5,34,29,40,29200,2073,1825,224,1220,561,16777139,82,Tag0,unknown
1499246933484,0,67,1.4721679687500002E-5,34,29,40,29200,2073,1825,224,1220,561,16777139,82,Tag0,unknown
1499246933484,0,57,1.2524414062500001E-5,34,29,40,29200,2073,1825,224,1220,561,16777139,82,Tag0,unknown
1499246933488,0,41,9.008789062499999E-6,34,29,40,29200,2073,1825,224,1220,561,16777139,82,Tag0,unknown
1499246933488,0,35,7.6904296875E-6,34,29,40,29200,2073,1825,224,1220,561,16777139,82,Tag0,unknown
1499246933489,0,29,6.3720703125E-6,34,29,40,29200,2073,1825,224,1220,561,16777139,82,Tag0,unknown
1499246933489,0,36,7.91015625E-6,34,29,40,29200,2073,1825,224,1220,561,16777139,82,Tag0,unknown
1499246933489,0,52,1.142578125E-5,34,29,40,29200,2073,1825,224,1220,561,16777139,82,Tag0,unknown
1499246933490,0,54,1.1865234375000001E-5,34,29,40,29200,2073,1825,224,1220,561,16777139,82,Tag0,unknown
1499246933490,0,39,8.5693359375E-6,34,29,40,29200,2073,1825,224,1220,561,16777139,82,Tag0,unknown
1499246933491,0,32,7.03125E-6,34,29,40,29200,2073,1825,224,1220,561,16777139,82,Tag0,unknown
1499246933492,0,51,1.1206054687499999E-5,34,29,40,29200,2073,1825,224,1220,561,16777139,82,Tag0,unknown
1499246933492,0,76,1.669921875E-5,34,29,40,29200,2073,1825,224,1220,561,16777139,82,Tag0,unknown
1499246933493,0,86,1.8896484375000003E-5,34,29,40,29200,2073,1825,224,1220,561,16777139,82,Tag0,unknown
1499246933493,0,81,1.77978515625E-5,34,29,40,29200,2073,1825,224,1220,561,16777139,82,Tag0,unknown
1499246933493,0,69,1.51611328125E-5,34,29,40,29200,2073,1825,224,1220,561,16777139,82,Tag0,unknown
1499246933494,0,57,1.2524414062500001E-5,34,29,40,29200,2073,1825,224,1220,561,16777139,82,Tag0,unknown
1499246933494,0,53,1.1645507812500002E-5,34,29,40,29200,2073,1825,224,1220,561,16777139,82,Tag0,unknown
1499246933494,0,52,1.142578125E-5,34,29,40,29200,2073,1825,224,1220,561,16777139,82,Tag0,unknown
1499246933495,0,53,1.1645507812500002E-5,34,29,40,29200,2073,1825,224,1220,561,16777139,82,Tag0,unknown
1499246933496,0,57,1.2524414062500001E-5,34,29,40,29200,2073,1825,224,1220,561,16777139,82,Tag0,unknown
1499246933496,0,57,1.2524414062500001E-5,34,29,40,29200,2073,1825,224,1220,561,16777139,82,Tag0,unknown
1499246933497,0,42,9.228515625000002E-6,34,29,40,29200,2073,1825,224,1220,561,16777139,82,Tag0,unknown
1499246933497,0,24,5.2734375E-6,34,29,40,29200,2073,1825,224,1220,561,16777139,82,Tag0,unknown
1499246933497,0,26,5.712890625E-6,34,29,40,29200,2073,1825,224,1220,561,16777139,82,Tag0,unknown
1499246933498,0,49,1.07666015625E-5,34,29,40,29200,2073,1825,224,1220,561,16777139,82,Tag0,unknown
1499246933498,0,68,1.4941406250000001E-5,34,29,40,29200,2073,1825,224,1220,561,16777139,82,Tag0,unknown
1499246933499,0,80,1.7578125E-5,34,29,40,29200,2073,1825,224,1220,561,16777139,82,Tag0,unknown
1499246933499,0,85,1.86767578125E-5,34,29,40,29200,2073,1825,224,1220,561,16777139,82,Tag0,unknown
1499246933499,0,81,1.77978515625E-5,34,29,40,29200,2073,1825,224,1220,561,16777139,82,Tag0,unknown
1499246933500,0,74,1.6259765625E-5,34,29,40,29200,2073,1825,224,1220,561,16777139,82,Tag0,unknown
1499246933534,0,81,1.77978515625E-5,29,40,40,88454,88386,1233,25366,10094,4024,937,780,Tag0,unknown
1499246933534,0,90,1.9775390625E-5,29,40,40,88454,88386,1233,25366,10094,4024,937,780,Tag0,unknown
1499246933535,0,104,2.28515625E-5,29,40,40,88454,88386,1233,25366,10094,4024,937,780,Tag0,unknown
1499246933535,0,106,2.3291015625000003E-5,29,40,40,88454,88386,1233,25366,10094,4024,937,780,Tag0,unknown
1499246933536,0,108,2.3730468750000002E-5,29,40,40,88454,88386,1233,25366,10094,4024,937,780,Tag0,unknown
1499246933537,0,112,2.4609375E-5,29,40,40,88454,88386,1233,25366,10094,4024,937,780,Tag0,unknown
1499246933538,0,107,2.35107421875E-5,29,40,40,88454,88386,1233,25366,10094,4024,937,780,Tag0,unknown
1499246933539,0,107,2.35107421875E-5,29,40,40,88454,88386,1233,25366,10094,4024,937,780,Tag0,unknown
1499246933539,0,120,2.63671875E-5,29,40,40,88454,88386,1233,25366,10094,4024,937,780,Tag0,unknown
1499246933540,0,-118,-2.5927734375E-5,29,40,40,88454,88386,1233,25366,10094,4024,937,780,Tag0,unknown
1499246933540,0,-116,-2.548828125E-5,29,40,40,88454,88386,1233,25366,10094,4024,937,780,Tag0,unknown
1499246933541,0,-117,-2.5708007812499998E-5,29,40,40,88454,88386,1233,25366,10094,4024,937,780,Tag0,unknown
1499246933542,0,-116,-2.548828125E-5,29,40,40,88454,88386,1233,25366,10094,4024,937,780,Tag0,unknown
1499246933542,0,-124,-2.724609375E-5,29,40,40,88454,88386,1233,25366,10094,4024,937,780,Tag0,unknown
1499246933543,0,121,2.6586914062500003E-5,29,40,40,88454,88386,1233,25366,10094,4024,937,780,Tag0,unknown
1499246933544,0,-127,-2.79052734375E-5,29,40,40,88454,88386,1233,25366,10094,4024,937,780,Tag0,unknown
1499246933545,0,-110,-2.4169921875E-5,29,40,40,88454,88386,1233,25366,10094,4024,937,780,Tag0,unknown
1499246933546,0,-118,-2.5927734375E-5,29,40,40,88454,88386,1233,25366,10094,4024,937,780,Tag0,unknown
1499246933547,0,124,2.724609375E-5,29,40,40,88454,88386,1233,25366,10094,4024,937,780,Tag0,unknown
1499246933548,0,121,2.6586914062500003E-5,29,40,40,88454,88386,1233,25366,10094,4024,937,780,Tag0,unknown
1499246933548,0,107,2.35107421875E-5,29,40,40,88454,88386,1233,25366,10094,4024,937,780,Tag0,unknown
1499246933549,0,89,1.95556640625E-5,29,40,40,88454,88386,1233,25366,10094,4024,937,780,Tag0,unknown
1499246933549,0,96,2.109375E-5,29,40,40,88454,88386,1233,25366,10094,4024,937,780,Tag0,unknown
1499246933550,0,109,2.39501953125E-5,29,40,40,88454,88386,1233,25366,10094,4024,937,780,Tag0,unknown
1499246933550,0,116,2.548828125E-5,29,40,40,88454,88386,1233,25366,10094,4024,937,780,Tag0,unknown
1499246933551,0,106,2.3291015625000003E-5,29,40,40,88454,88386,1233,25366,10094,4024,937,780,Tag0,unknown
1499246933551,0,100,2.197265625E-5,29,40,40,88454,88386,1233,25366,10094,4024,937,780,Tag0,unknown
1499246933552,0,104,2.28515625E-5,29,40,40,88454,88386,1233,25366,10094,4024,937,780,Tag0,unknown
1499246933552,0,102,2.2412109374999998E-5,29,40,40,88454,88386,1233,25366,10094,4024,937,780,Tag0,unknown
1499246933553,0,92,2.021484375E-5,29,40,40,88454,88386,1233,25366,10094,4024,937,780,Tag0,unknown
1499246933553,0,84,1.8457031250000004E-5,29,40,40,88454,88386,1233,25366,10094,4024,937,780,Tag0,unknown
1499246933554,0,80,1.7578125E-5,29,40,40,88454,88386,1233,25366,10094,4024,937,780,Tag0,unknown
1499246933554,0,73,1.6040039062500002E-5,29,40,40,88454,88386,1233,25366,10094,4024,937,780,Tag0,unknown
1499246933555,0,73,1.6040039062500002E-5,29,40,40,88454,88386,1233,25366,10094,4024,937,780,Tag0,unknown
1499246933556,0,72,1.58203125E-5,29,40,40,88454,88386,1233,25366,10094,4024,937,780,Tag0,unknown
1499246933557,0,70,1.5380859375E-5,29,40,40,88454,88386,1233,25366,10094,4024,937,780,Tag0,unknown
1499246933559,0,72,1.58203125E-5,29,40,40,88454,88386,1233,25366,10094,4024,937,780,Tag0,unknown
1499246933559,0,72,1.58203125E-5,29,40,40,88454,88386,1233,25366,10094,4024,937,780,Tag0,unknown
1499246933560,0,73,1.6040039062500002E-5,29,40,40,88454,88386,1233,25366,10094,4024,937,780,Tag0,unknown
1499246933560,0,70,1.5380859375E-5,29,40,40,88454,88386,1233,25366,10094,4024,937,780,Tag0,unknown
1499246933561,0,72,1.58203125E-5,29,40,40,88454,88386,1233,25366,10094,4024,937,780,Tag0,unknown
1499246933561,0,98,2.1533203125E-5,29,40,40,88454,88386,1233,25366,10094,4024,937,780,Tag0,unknown
1499246933561,0,118,2.5927734375E-5,29,40,40,88454,88386,1233,25366,10094,4024,937,780,Tag0,unknown
1499246933562,0,118,2.5927734375E-5,29,40,40,88454,88386,1233,25366,10094,4024,937,780,Tag0,unknown
1499246933562,0,122,2.6806640625E-5,29,40,40,88454,88386,1233,25366,10094,4024,937,780,Tag0,unknown
1499246933563,0,-124,-2.724609375E-5,29,40,40,88454,88386,1233,25366,10094,4024,937,780,Tag0,unknown
1499246933563,0,-121,-2.6586914062500003E-5,29,40,40,88454,88386,1233,25366,10094,4024,937,780,Tag0,unknown
1499246933563,0,-117,-2.5708007812499998E-5,29,40,40,88454,88386,1233,25366,10094,4024,937,780,Tag0,unknown
1499246933564,0,-111,-2.43896484375E-5,29,40,40,88454,88386,1233,25366,10094,4024,937,780,Tag0,unknown
1499246933564,0,-118,-2.5927734375E-5,29,40,40,88454,88386,1233,25366,10094,4024,937,780,Tag0,unknown
1499246933565,0,-118,-2.5927734375E-5,29,40,40,88454,88386,1233,25366,10094,4024,937,780,Tag0,unknown
1499246933565,0,-107,-2.35107421875E-5,29,40,40,88454,88386,1233,25366,10094,4024,937,780,Tag0,unknown
1499246933566,0,-95,-2.08740234375E-5,29,40,40,88454,88386,1233,25366,10094,4024,937,780,Tag0,unknown
1499246933566,0,-85,-1.86767578125E-5,29,40,40,88454,88386,1233,25366,10094,4024,937,780,Tag0,unknown
1499246933567,0,-75,-1.64794921875E-5,29,40,40,88454,88386,1233,25366,10094,4024,937,780,Tag0,unknown
1499246933567,0,-77,-1.69189453125E-5,29,40,40,88454,88386,1233,25366,10094,4024,937,780,Tag0,unknown
1499246933576,0,-87,-1.91162109375E-5,29,40,40,88454,88386,1233,25366,10094,4024,937,780,Tag0,unknown
1499246933577,0,-90,-1.9775390625E-5,29,40,40,88454,88386,1233,25366,10094,4024,937,780,Tag0,unknown
1499246933578,0,-86,-1.8896484375000003E-5,29,40,40,88454,88386,1233,25366,10094,4024,937,780,Tag0,unknown
1499246933579,0,-91,-1.99951171875E-5,29,40,40,88454,88386,1233,25366,10094,4024,937,780,Tag0,unknown
1499246933579,0,-92,-2.021484375E-5,29,40,40,88454,88386,1233,25366,10094,4024,937,780,Tag0,unknown
1499246933580,0,-92,-2.021484375E-5,29,40,40,88454,88386,1233,25366,10094,4024,937,780,Tag0,unknown
1499246933580,0,-101,-2.2192382812500002E-5,29,40,40,88454,88386,1233,25366,10094,4024,937,780,Tag0,unknown
1499246933581,0,-106,-2.3291015625000003E-5,29,40,40,88454,88386,1233,25366,10094,4024,937,780,Tag0,unknown
1499246933581,0,-111,-2.43896484375E-5,29,40,40,88454,88386,1233,25366,10094,4024,937,780,Tag0,unknown
1499246933581,0,-120,-2.63671875E-5,29,40,40,88454,88386,1233,25366,10094,4024,937,780,Tag0,unknown
1499246933582,0,-126,-2.7685546875E-5,29,40,40,88454,88386,1233,25366,10094,4024,937,780,Tag0,unknown
1499246933582,0,121,2.6586914062500003E-5,29,40,40,88454,88386,1233,25366,10094,4024,937,780,Tag0,unknown
1499246933582,0,112,2.4609375E-5,29,40,40,88454,88386,1233,25366,10094,4024,937,780,Tag0,unknown
1499246933583,0,101,2.2192382812500002E-5,29,40,40,88454,88386,1233,25366,10094,4024,937,780,Tag0,unknown
1499246933583,0,82,1.8017578124999998E-5,29,40,40,88454,88386,1233,25366,10094,4024,937,780,Tag0,unknown
1499246933584,0,71,1.56005859375E-5,29,40,40,88454,88386,1233,25366,10094,4024,937,780,Tag0,unknown
1499246933584,0,80,1.7578125E-5,29,40,40,88454,88386,1233,25366,10094,4024,937,780,Tag0,unknown
1499246933584,0,88,1.93359375E-5,29,40,40,88454,88386,1233,25366,10094,4024,937,780,Tag0,unknown
1499246933585,0,88,1.93359375E-5,29,40,40,88454,88386,1233,25366,10094,4024,937,780,Tag0,unknown
1499246933585,0,87,1.91162109375E-5,29,40,40,88454,88386,1233,25366,10094,4024,937,780,Tag0,unknown
1499246933586,0,88,1.93359375E-5,29,40,40,88454,88386,1233,25366,10094,4024,937,780,Tag0,unknown
1499246933587,0,91,1.99951171875E-5,29,40,40,88454,88386,1233,25366,10094,4024,937,780,Tag0,unknown
1499246933587,0,90,1.9775390625E-5,29,40,40,88454,88386,1233,25366,10094,4024,937,780,Tag0,unknown
1499246933588,0,89,1.95556640625E-5,29,40,40,88454,88386,1233,25366,10094,4024,937,780,Tag0,unknown
1499246933588,0,90,1.9775390625E-5,29,40,40,88454,88386,1233,25366,10094,4024,937,780,Tag0,unknown
1499246933589,0,97,2.13134765625E-5,29,40,40,88454,88386,1233,25366,10094,4024,937,780,Tag0,unknown
1499246933589,0,102,2.2412109374999998E-5,29,40,40,88454,88386,1233,25366,10094,4024,937,780,Tag0,unknown
1499246933589,0,107,2.35107421875E-5,29,40,40,88454,88386,1233,25366,10094,4024,937,780,Tag0,unknown
1499246933590,0,114,2.5048828125000003E-5,29,40,40,88454,88386,1233,25366,10094,4024,937,780,Tag0,unknown
1499246933590,0,118,2.5927734375E-5,29,40,40,88454,88386,1233,25366,10094,4024,937,780,Tag0,unknown
1499246933590,0,118,2.5927734375E-5,29,40,40,88454,88386,1233,25366,10094,4024,937,780,Tag0,unknown
1499246933591,0,-127,-2.79052734375E-5,29,40,40,88454,88386,1233,25366,10094,4024,937,780,Tag0,unknown
1499246933591,0,-107,-2.35107421875E-5,29,40,40,88454,88386,1233,25366,10094,4024,937,780,Tag0,unknown
1499246933592,0,-102,-2.2412109374999998E-5,29,40,40,88454,88386,1233,25366,10094,4024,937,780,Tag0,unknown
1499246933592,0,-109,-2.39501953125E-5,29,40,40,88454,88386,1233,25366,10094,4024,937,780,Tag0,unknown
1499246933592,0,-109,-2.39501953125E-5,29,40,40,88454,88386,1233,25366,10094,4024,937,780,Tag0,unknown
1499246933593,0,-92,-2.021484375E-5,29,40,40,88454,88386,1233,25366,10094,4024,937,780,Tag0,unknown
1499246933593,0,-80,-1.7578125E-5,29,40,40,88454,88386,1233,25366,10094,4024,937,780,Tag0,unknown
1499246933594,0,-84,-1.8457031250000004E-5,29,40,40,88454,88386,1233,25366,10094,4024,937,780,Tag0,unknown
1499246933594,0,-77,-1.69189453125E-5,29,40,40,88454,88386,1233,25366,10094,4024,937,780,Tag0,unknown
1499246933595,0,-73,-1.6040039062500002E-5,29,40,40,88454,88386,1233,25366,10094,4024,937,780,Tag0,unknown
1499246933596,0,-78,-1.7138671875E-5,29,40,40,88454,88386,1233,25366,10094,4024,937,780,Tag0,unknown
1499246933597,0,-77,-1.69189453125E-5,29,40,40,88454,88386,1233,25366,10094,4024,937,780,Tag0,unknown
1499246933598,0,-72,-1.58203125E-5,29,40,40,88454,88386,1233,25366,10094,4024,937,780,Tag0,unknown
1499246933598,0,-73,-1.6040039062500002E-5,29,40,40,88454,88386,1233,25366,10094,4024,937,780,Tag0,unknown
1499246933601,0,-75,-1.64794921875E-5,29,40,40,88454,88386,1233,25366,10094,4024,937,780,Tag0,unknown
1499246933602,0,-72,-1.58203125E-5,29,40,40,88454,88386,1233,25366,10094,4024,937,780,Tag0,unknown
1499246933603,0,-70,-1.5380859375E-5,29,40,40,88454,88386,1233,25366,10094,4024,937,780,Tag0,unknown
1499246933604,0,-62,-1.3623046875E-5,29,40,40,88454,88386,1233,25366,10094,4024,937,780,Tag0,unknown
1499246933604,0,-58,-1.2744140625E-5,29,40,40,88454,88386,1233,25366,10094,4024,937,780,Tag0,unknown
1499246933605,0,-52,-1.142578125E-5,29,40,40,88454,88386,1233,25366,10094,4024,937,780,Tag0,unknown
1499246933606,0,-43,-9.448242187500001E-6,29,40,40,88454,88386,1233,25366,10094,4024,937,780,Tag0,unknown
1499246933607,0,-30,-6.591796875E-6,29,40,40,88454,88386,1233,25366,10094,4024,937,780,Tag0,unknown
1499246933608,0,-16,-3.515625E-6,29,40,40,88454,88386,1233,25366,10094,4024,937,780,Tag0,unknown
1499246933609,0,261,5.73486328125E-5,29,40,40,88454,88386,1233,25366,10094,4024,937,780,Tag0,unknown
1499246933610,0,292,6.416015625000001E-5,29,40,40,88454,88386,1233,25366,10094,4024,937,780,Tag0,unknown
1499246933611,0,300,6.591796875E-5,29,40,40,88454,88386,1233,25366,10094,4024,937,780,Tag0,unknown
1499246933611,0,306,6.723632812500001E-5,29,40,40,88454,88386,1233,25366,10094,4024,937,780,Tag0,unknown
1499246933612,0,313,6.87744140625E-5,29,40,40,88454,88386,1233,25366,10094,4024,937,780,Tag0,unknown
1499246933612,0,330,7.2509765625E-5,29,40,40,88454,88386,1233,25366,10094,4024,937,780,Tag0,unknown
1499246933613,0,344,7.558593750000001E-5,29,40,40,88454,88386,1233,25366,10094,4024,937,780,Tag0,unknown
1499246933614,0,349,7.668457031250001E-5,29,40,40,88454,88386,1233,25366,10094,4024,937,780,Tag0,unknown
1499246933615,0,358,7.8662109375E-5,29,40,40,88454,88386,1233,25366,10094,4024,937,780,Tag0,unknown
1499246933615,0,375,8.23974609375E-5,29,40,40,88454,88386,1233,25366,10094,4024,937,780,Tag0,unknown
1499246933618,0,139,3.0541992187500004E-5,29,40,40,88454,88386,1233,25366,10094,4024,937,780,Tag0,unknown
1499246933618,0,138,3.0322265625E-5,29,40,40,88454,88386,1233,25366,10094,4024,937,780,Tag0,unknown
1499246933619,0,129,2.8344726562500002E-5,29,40,40,88454,88386,1233,25366,10094,4024,937,780,Tag0,unknown
1499246933619,0,379,8.32763671875E-5,29,40,40,88454,88386,1233,25366,10094,4024,937,780,Tag0,unknown
1499246933620,0,135,2.96630859375E-5,29,40,40,88454,88386,1233,25366,10094,4024,937,780,Tag0,unknown
1499246933620,0,154,3.3837890625E-5,29,40,40,88454,88386,1233,25366,10094,4024,937,780,Tag0,unknown
1499246933621,0,168,3.691406250000001E-5,29,40,40,88454,88386,1233,25366,10094,4024,937,780,Tag0,unknown
1499246933621,0,172,3.7792968750000005E-5,29,40,40,88454,88386,1233,25366,10094,4024,937,780,Tag0,unknown
1499246933622,0,177,3.8891601562500006E-5,29,40,40,88454,88386,1233,25366,10094,4024,937,780,Tag0,unknown
1499246933622,0,168,3.691406250000001E-5,29,40,40,88454,88386,1233,25366,10094,4024,937,780,Tag0,unknown
1499246933623,0,161,3.53759765625E-5,29,40,40,88454,88386,1233,25366,10094,4024,937,780,Tag0,unknown
1499246933623,0,171,3.75732421875E-5,29,40,40,88454,88386,1233,25366,10094,4024,937,780,Tag0,unknown
1499246933623,0,187,4.10888671875E-5,29,40,40,88454,88386,1233,25366,10094,4024,937,780,Tag0,unknown
1499246933624,0,188,4.1308593750000004E-5,29,40,40,88454,88386,1233,25366,10094,4024,937,780,Tag0,unknown
1499246933624,0,184,4.04296875E-5,29,40,40,88454,88386,1233,25366,10094,4024,937,780,Tag0,unknown
1499246933625,0,176,3.8671875E-5,29,40,40,88454,88386,1233,25366,10094,4024,937,780,Tag0,unknown
1499246933625,0,161,3.53759765625E-5,29,40,40,88454,88386,1233,25366,10094,4024,937,780,Tag0,unknown
1499246933626,0,141,3.09814453125E-5,29,40,40,88454,88386,1233,25366,10094,4024,937,780,Tag0,unknown
1499246933628,0,373,8.19580078125E-5,29,40,40,88454,88386,1233,25366,10094,4024,937,780,Tag0,unknown
1499246933628,0,360,7.91015625E-5,29,40,40,88454,88386,1233,25366,10094,4024,937,780,Tag0,unknown
1499246933629,0,346,7.6025390625E-5,29,40,40,88454,88386,1233,25366,10094,4024,937,780,Tag0,unknown
1499246933630,0,326,7.163085937500001E-5,29,40,40,88454,88386,1233,25366,10094,4024,937,780,Tag0,unknown
1499246933630,0,308,6.767578125E-5,29,40,40,88454,88386,1233,25366,10094,4024,937,780,Tag0,unknown
1499246933630,0,282,6.1962890625E-5,29,40,40,88454,88386,1233,25366,10094,4024,937,780,Tag0,unknown
1499246933631,0,-4,-8.7890625E-7,29,40,40,88454,88386,1233,25366,10094,4024,937,780,Tag0,unknown
1499246933631,0,-37,-8.1298828125E-6,29,40,40,88454,88386,1233,25366,10094,4024,937,780,Tag0,unknown
1499246933631,0,-61,-1.34033203125E-5,29,40,40,88454,88386,1233,25366,10094,4024,937,780,Tag0,unknown
1499246933632,0,-72,-1.58203125E-5,29,40,40,88454,88386,1233,25366,10094,4024,937,780,Tag0,unknown
1499246933632,0,-77,-1.69189453125E-5,29,40,40,88454,88386,1233,25366,10094,4024,937,780,Tag0,unknown
1499246933633,0,-103,-2.26318359375E-5,29,40,40,88454,88386,1233,25366,10094,4024,937,780,Tag0,unknown
1499246933633,0,124,2.724609375E-5,29,40,40,88454,88386,1233,25366,10094,4024,937,780,Tag0,unknown
1499246933634,0,106,2.3291015625000003E-5,29,40,40,88454,88386,1233,25366,10094,4024,937,780,Tag0,unknown
1499246933634,0,102,2.2412109374999998E-5,29,40,40,88454,88386,1233,25366,10094,4024,937,780,Tag0,unknown
1499246933636,0,99,2.1752929687500003E-5,29,40,40,88454,88386,1233,25366,10094,4024,937,780,Tag0,unknown
1499246933637,0,75,1.64794921875E-5,29,40,40,88454,88386,1233,25366,10094,4024,937,780,Tag0,unknown
1499246933638,0,44,9.66796875E-6,29,40,40,88454,88386,1233,25366,10094,4024,937,780,Tag0,unknown
1499246933638,0,21,4.614257812500001E-6,29,40,40,88454,88386,1233,25366,10094,4024,937,780,Tag0,unknown
1499246933639,0,-260,-5.712890625E-5,29,40,40,88454,88386,1233,25366,10094,4024,937,780,Tag0,unknown
1499246933640,0,-294,-6.4599609375E-5,29,40,40,88454,88386,1233,25366,10094,4024,937,780,Tag0,unknown
1499246933640,0,-330,-7.2509765625E-5,29,40,40,88454,88386,1233,25366,10094,4024,937,780,Tag0,unknown
1499246933640,0,-360,-7.91015625E-5,29,40,40,88454,88386,1233,25366,10094,4024,937,780,Tag0,unknown
1499246933641,0,-133,-2.92236328125E-5,29,40,40,88454,88386,1233,25366,10094,4024,937,780,Tag0,unknown
1499246933641,0,-155,-3.40576171875E-5,29,40,40,88454,88386,1233,25366,10094,4024,937,780,Tag0,unknown
1499246933642,0,-172,-3.7792968750000005E-5,29,40,40,88454,88386,1233,25366,10094,4024,937,780,Tag0,unknown
1499246933642,0,-186,-4.0869140625E-5,29,40,40,88454,88386,1233,25366,10094,4024,937,780,Tag0,unknown
1499246933643,0,-193,-4.2407226562500005E-5,29,40,40,88454,88386,1233,25366,10094,4024,937,780,Tag0,unknown
1499246933643,0,-195,-4.28466796875E-5,29,40,40,88454,88386,1233,25366,10094,4024,937,780,Tag0,unknown
1499246933643,0,-201,-4.41650390625E-5,29,40,40,88454,88386,1233,25366,10094,4024,937,780,Tag0,unknown
1499246933644,0,-214,-4.7021484375E-5,29,40,40,88454,88386,1233,25366,10094,4024,937,780,Tag0,unknown
1499246933644,0,-243,-5.33935546875E-5,29,40,40,88454,88386,1233,25366,10094,4024,937,780,Tag0,unknown
1499246933644,0,-526,-1.1557617187500001E-4,29,40,40,88454,88386,1233,25366,10094,4024,937,780,Tag0,unknown
1499246933645,0,-548,-1.2041015624999999E-4,29,40,40,88454,88386,1233,25366,10094,4024,937,780,Tag0,unknown
1499246933645,0,-558,-1.22607421875E-4,29,40,40,88454,88386,1233,25366,10094,4024,937,780,Tag0,unknown
1499246933646,0,-563,-1.237060546875E-4,29,40,40,88454,88386,1233,25366,10094,4024,937,780,Tag0,unknown
1499246933646,0,-568,-1.248046875E-4,29,40,40,88454,88386,1233,25366,10094,4024,937,780,Tag0,unknown
1499246933647,0,-578,-1.27001953125E-4,29,40,40,88454,88386,1233,25366,10094,4024,937,780,Tag0,unknown
1499246933647,0,-588,-1.2919921875E-4,29,40,40,88454,88386,1233,25366,10094,4024,937,780,Tag0,unknown
1499246933647,0,-602,-1.3227539062500001E-4,29,40,40,88454,88386,1233,25366,10094,4024,937,780,Tag0,unknown
1499246933648,0,-604,-1.3271484375E-4,29,40,40,88454,88386,1233,25366,10094,4024,937,780,Tag0,unknown
1499246933648,0,-593,-1.3029785156250002E-4,29,40,40,88454,88386,1233,25366,10094,4024,937,780,Tag0,unknown
1499246933648,0,-585,-1.285400390625E-4,29,40,40,88454,88386,1233,25366,10094,4024,937,780,Tag0,unknown
1499246933649,0,-587,-1.2897949218750003E-4,29,40,40,88454,88386,1233,25366,10094,4024,937,780,Tag0,unknown
1499246933649,0,-588,-1.2919921875E-4,29,40,40,88454,88386,1233,25366,10094,4024,937,780,Tag0,unknown
1499246933650,0,-585,-1.285400390625E-4,29,40,40,88454,88386,1233,25366,10094,4024,937,780,Tag0,unknown
1499246933650,0,-577,-1.2678222656250002E-4,29,40,40,88454,88386,1233,25366,10094,4024,937,780,Tag0,unknown
1499246933650,0,-569,-1.250244140625E-4,29,40,40,88454,88386,1233,25366,10094,4024,937,780,Tag0,unknown
1499246933651,0,-567,-1.245849609375E-4,29,40,40,88454,88386,1233,25366,10094,4024,937,780,Tag0,unknown
1499246933651,0,-568,-1.248046875E-4,29,40,40,88454,88386,1233,25366,10094,4024,937,780,Tag0,unknown
1499246933651,0,-578,-1.27001953125E-4,29,40,40,88454,88386,1233,25366,10094,4024,937,780,Tag0,unknown
1499246933652,0,-579,-1.272216796875E-4,29,40,40,88454,88386,1233,25366,10094,4024,937,780,Tag0,unknown
1499246933652,0,-566,-1.2436523437500002E-4,29,40,40,88454,88386,1233,25366,10094,4024,937,780,Tag0,unknown
1499246933652,0,-552,-1.212890625E-4,29,40,40,88454,88386,1233,25366,10094,4024,937,780,Tag0,unknown
1499246933653,0,-550,-1.20849609375E-4,29,40,40,88454,88386,1233,25366,10094,4024,937,780,Tag0,unknown
1499246933653,0,-557,-1.223876953125E-4,29,40,40,88454,88386,1233,25366,10094,4024,937,780,Tag0,unknown
1499246933653,0,-564,-1.2392578125E-4,29,40,40,88454,88386,1233,25366,10094,4024,937,780,Tag0,unknown
1499246933654,0,-565,-1.241455078125E-4,29,40,40,88454,88386,1233,25366,10094,4024,937,780,Tag0,unknown
1499246933654,0,-552,-1.212890625E-4,29,40,40,88454,88386,1233,25366,10094,4024,937,780,Tag0,unknown
1499246933655,0,-538,-1.1821289062499999E-4,29,40,40,88454,88386,1233,25366,10094,4024,937,780,Tag0,unknown
1499246933656,0,-532,-1.1689453125E-4,29,40,40,88454,88386,1233,25366,10094,4024,937,780,Tag0,unknown
1499246933656,0,-531,-1.1667480468750001E-4,29,40,40,88454,88386,1233,25366,10094,4024,937,780,Tag0,unknown
1499246933657,0,-532,-1.1689453125E-4,29,40,40,88454,88386,1233,25366,10094,4024,937,780,Tag0,unknown
1499246933657,0,-529,-1.162353515625E-4,29,40,40,88454,88386,1233,25366,10094,4024,937,780,Tag0,unknown
1499246933658,0,-515,-1.131591796875E-4,29,40,40,88454,88386,1233,25366,10094,4024,937,780,Tag0,unknown
1499246933658,0,-249,-5.47119140625E-5,29,40,40,88454,88386,1233,25366,10094,4024,937,780,Tag0,unknown
1499246933658,0,-250,-5.4931640625E-5,29,40,40,88454,88386,1233,25366,10094,4024,937,780,Tag0,unknown
1499246933659,0,-245,-5.38330078125E-5,29,40,40,88454,88386,1233,25366,10094,4024,937,780,Tag0,unknown
1499246933659,0,-234,-5.1416015624999996E-5,29,40,40,88454,88386,1233,25366,10094,4024,937,780,Tag0,unknown
1499246933659,0,-226,-4.9658203125E-5,29,40,40,88454,88386,1233,25366,10094,4024,937,780,Tag0,unknown
1499246933660,0,-206,-4.5263671875E-5,29,40,40,88454,88386,1233,25366,10094,4024,937,780,Tag0,unknown
1499246933660,0,-180,-3.955078125E-5,29,40,40,88454,88386,1233,25366,10094,4024,937,780,Tag0,unknown
1499246933660,0,-153,-3.3618164062500004E-5,29,40,40,88454,88386,1233,25366,10094,4024,937,780,Tag0,unknown
1499246933661,0,-132,-2.900390625E-5,29,40,40,88454,88386,1233,25366,10094,4024,937,780,Tag0,unknown
1499246933661,0,-373,-8.19580078125E-5,29,40,40,88454,88386,1233,25366,10094,4024,937,780,Tag0,unknown
1499246933661,0,-366,-8.0419921875E-5,29,40,40,88454,88386,1233,25366,10094,4024,937,780,Tag0,unknown
1499246933662,0,-373,-8.19580078125E-5,29,40,40,88454,88386,1233,25366,10094,4024,937,780,Tag0,unknown
1499246933662,0,-371,-8.151855468750001E-5,29,40,40,88454,88386,1233,25366,10094,4024,937,780,Tag0,unknown
1499246933662,0,-353,-7.75634765625E-5,29,40,40,88454,88386,1233,25366,10094,4024,937,780,Tag0,unknown
1499246933663,0,-340,-7.470703125E-5,29,40,40,88454,88386,1233,25366,10094,4024,937,780,Tag0,unknown
1499246933663,0,-348,-7.646484375E-5,29,40,40,88454,88386,1233,25366,10094,4024,937,780,Tag0,unknown
1499246933663,0,-357,-7.844238281250001E-5,29,40,40,88454,88386,1233,25366,10094,4024,937,780,Tag0,unknown
1499246933664,0,-348,-7.646484375E-5,29,40,40,88454,88386,1233,25366,10094,4024,937,780,Tag0,unknown
1499246933664,0,-338,-7.426757812499999E-5,29,40,40,88454,88386,1233,25366,10094,4024,937,780,Tag0,unknown
1499246933664,0,-338,-7.426757812499999E-5,29,40,40,88454,88386,1233,25366,10094,4024,937,780,Tag0,unknown
1499246933665,0,-339,-7.448730468750001E-5,29,40,40,88454,88386,1233,25366,10094,4024,937,780,Tag0,unknown
1499246933665,0,-342,-7.5146484375E-5,29,40,40,88454,88386,1233,25366,10094,4024,937,780,Tag0,unknown
1499246933665,0,-339,-7.448730468750001E-5,29,40,40,88454,88386,1233,25366,10094,4024,937,780,Tag0,unknown
1499246933666,0,-318,-6.9873046875E-5,29,40,40,88454,88386,1233,25366,10094,4024,937,780,Tag0,unknown
1499246933667,0,-293,-6.43798828125E-5,29,40,40,88454,88386,1233,25366,10094,4024,937,780,Tag0,unknown
1499246933667,0,-261,-5.73486328125E-5,29,40,40,88454,88386,1233,25366,10094,4024,937,780,Tag0,unknown
1499246933667,0,16,3.515625E-6,29,40,40,88454,88386,1233,25366,10094,4024,937,780,Tag0,unknown
1499246933670,0,23,5.0537109375E-6,29,40,40,88454,88386,1233,25366,10094,4024,937,780,Tag0,unknown
1499246933670,0,29,6.3720703125E-6,29,40,40,88454,88386,1233,25366,10094,4024,937,780,Tag0,unknown
1499246933673,0,34,7.4707031250000005E-6,29,40,61,88454,88386,1233,25366,10094,4024,937,780,Tag0,unknown
1499246933675,0,41,9.008789062499999E-6,29,40,61,88454,88386,1233,25366,10094,4024,937,780,Tag0,unknown
1499246933677,0,53,1.1645507812500002E-5,29,40,61,88454,88386,1233,25366,10094,4024,937,780,Tag0,unknown
1499246933677,0,58,1.2744140625E-5,29,40,61,88454,88386,1233,25366,10094,4024,937,780,Tag0,unknown
1499246933678,0,60,1.318359375E-5,29,40,61,88454,88386,1233,25366,10094,4024,937,780,Tag0,unknown
1499246933678,0,59,1.29638671875E-5,29,40,61,88454,88386,1233,25366,10094,4024,937,780,Tag0,unknown
1499246933678,0,56,1.23046875E-5,29,40,61,88454,88386,1233,25366,10094,4024,937,780,Tag0,unknown
1499246933679,0,60,1.318359375E-5,29,40,61,88454,88386,1233,25366,10094,4024,937,780,Tag0,unknown
1499246933679,0,69,1.51611328125E-5,29,40,61,88454,88386,1233,25366,10094,4024,937,780,Tag0,unknown
1499246933680,0,72,1.58203125E-5,29,40,61,88454,88386,1233,25366,10094,4024,937,780,Tag0,unknown
1499246933680,0,70,1.5380859375E-5,29,40,61,88454,88386,1233,25366,10094,4024,937,780,Tag0,unknown
1499246933680,0,65,1.42822265625E-5,29,40,61,88454,88386,1233,25366,10094,4024,937,780,Tag0,unknown
1499246933681,0,56,1.23046875E-5,29,40,61,88454,88386,1233,25366,10094,4024,937,780,Tag0,unknown
1499246933681,0,56,1.23046875E-5,29,40,61,88454,88386,1233,25366,10094,4024,937,780,Tag0,unknown
1499246933681,0,65,1.42822265625E-5,29,40,61,88454,88386,1233,25366,10094,4024,937,780,Tag0,unknown
1499246933682,0,74,1.6259765625E-5,29,40,61,88454,88386,1233,25366,10094,4024,937,780,Tag0,unknown
1499246933682,0,84,1.8457031250000004E-5,29,40,61,88454,88386,1233,25366,10094,4024,937,780,Tag0,unknown
1499246933682,0,76,1.669921875E-5,29,40,61,88454,88386,1233,25366,10094,4024,937,780,Tag0,unknown
1499246933683,0,66,1.4501953125E-5,29,40,61,88454,88386,1233,25366,10094,4024,937,780,Tag0,unknown
1499246933683,0,66,1.4501953125E-5,29,40,61,88454,88386,1233,25366,10094,4024,937,780,Tag0,unknown
1499246933684,0,68,1.4941406250000001E-5,29,40,61,88454,88386,1233,25366,10094,4024,937,780,Tag0,unknown
1499246933684,0,75,1.64794921875E-5,29,40,61,88454,88386,1233,25366,10094,4024,937,780,Tag0,unknown
1499246933685,0,83,1.82373046875E-5,29,40,61,88454,88386,1233,25366,10094,4024,937,780,Tag0,unknown
1499246933685,0,84,1.8457031250000004E-5,29,40,61,88454,88386,1233,25366,10094,4024,937,780,Tag0,unknown
1499246933686,0,81,1.77978515625E-5,29,40,61,88454,88386,1233,25366,10094,4024,937,780,Tag0,unknown
1499246933687,0,87,1.91162109375E-5,29,40,61,88454,88386,1233,25366,10094,4024,937,780,Tag0,unknown
1499246933688,0,90,1.9775390625E-5,29,40,61,88454,88386,1233,25366,10094,4024,937,780,Tag0,unknown
1499246933689,0,91,1.99951171875E-5,29,40,61,88454,88386,1233,25366,10094,4024,937,780,Tag0,unknown
1499246933690,0,91,1.99951171875E-5,29,40,61,88454,88386,1233,25366,10094,4024,937,780,Tag0,unknown
1499246933690,0,81,1.77978515625E-5,29,40,61,88454,88386,1233,25366,10094,4024,937,780,Tag0,unknown
1499246933692,0,73,1.6040039062500002E-5,29,40,61,88454,88386,1233,25366,10094,4024,937,780,Tag0,unknown
1499246933693,0,76,1.669921875E-5,29,40,61,88454,88386,1233,25366,10094,4024,937,780,Tag0,unknown
1499246933694,0,87,1.91162109375E-5,29,40,61,88454,88386,1233,25366,10094,4024,937,780,Tag0,unknown
1499246933695,0,102,2.2412109374999998E-5,29,40,61,88454,88386,1233,25366,10094,4024,937,780,Tag0,unknown
1499246933701,0,118,2.5927734375E-5,29,40,61,88454,88386,1233,25366,10094,4024,937,780,Tag0,unknown
1499246933702,0,-127,-2.79052734375E-5,29,40,61,88454,88386,1233,25366,10094,4024,937,780,Tag0,unknown
1499246933702,0,-120,-2.63671875E-5,29,40,61,88454,88386,1233,25366,10094,4024,937,780,Tag0,unknown
1499246933703,0,-110,-2.4169921875E-5,29,40,61,88454,88386,1233,25366,10094,4024,937,780,Tag0,unknown
1499246933703,0,-110,-2.4169921875E-5,29,40,61,88454,88386,1233,25366,10094,4024,937,780,Tag0,unknown
1499246933704,0,-123,-2.70263671875E-5,29,40,61,88454,88386,1233,25366,10094,4024,937,780,Tag0,unknown
1499246933704,0,124,2.724609375E-5,29,40,61,88454,88386,1233,25366,10094,4024,937,780,Tag0,unknown
1499246933705,0,-128,-2.8125E-5,29,40,61,88454,88386,1233,25366,10094,4024,937,780,Tag0,unknown
1499246933705,0,-123,-2.70263671875E-5,29,40,61,88454,88386,1233,25366,10094,4024,937,780,Tag0,unknown
1499246933706,0,-109,-2.39501953125E-5,29,40,61,88454,88386,1233,25366,10094,4024,937,780,Tag0,unknown
1499246933707,0,-96,-2.109375E-5,29,40,61,88454,88386,1233,25366,10094,4024,937,780,Tag0,unknown
1499246933708,0,-101,-2.2192382812500002E-5,29,40,61,88454,88386,1233,25366,10094,4024,937,780,Tag0,unknown
1499246933709,0,-107,-2.35107421875E-5,29,40,61,88454,88386,1233,25366,10094,4024,937,780,Tag0,unknown
1499246933711,0,-112,-2.4609375E-5,29,40,61,88454,88386,1233,25366,10094,4024,937,780,Tag0,unknown
1499246933712,0,-123,-2.70263671875E-5,29,40,61,88454,88386,1233,25366,10094,4024,937,780,Tag0,unknown
1499246933713,0,123,2.70263671875E-5,29,40,61,88454,88386,1233,25366,10094,4024,937,780,Tag0,unknown
1499246933714,0,117,2.5708007812499998E-5,29,40,61,88454,88386,1233,25366,10094,4024,937,780,Tag0,unknown
1499246933715,0,117,2.5708007812499998E-5,29,40,61,88454,88386,1233,25366,10094,4024,937,780,Tag0,unknown
1499246933717,0,108,2.3730468750000002E-5,29,40,61,88454,88386,1233,25366,10094,4024,937,780,Tag0,unknown
1499246933717,0,87,1.91162109375E-5,29,40,61,88454,88386,1233,25366,10094,4024,937,780,Tag0,unknown
1499246933718,0,67,1.4721679687500002E-5,29,40,61,88454,88386,1233,25366,10094,4024,937,780,Tag0,unknown
1499246933718,0,56,1.23046875E-5,29,40,61,88454,88386,1233,25366,10094,4024,937,780,Tag0,unknown
1499246933718,0,67,1.4721679687500002E-5,29,40,61,88454,88386,1233,25366,10094,4024,937,780,Tag0,unknown
1499246933719,0,87,1.91162109375E-5,29,40,61,88454,88386,1233,25366,10094,4024,937,780,Tag0,unknown
1499246933719,0,122,2.6806640625E-5,29,40,61,88454,88386,1233,25366,10094,4024,937,780,Tag0,unknown
1499246933719,0,-95,-2.08740234375E-5,29,40,61,88454,88386,1233,25366,10094,4024,937,780,Tag0,unknown
1499246933720,0,-83,-1.82373046875E-5,29,40,61,88454,88386,1233,25366,10094,4024,937,780,Tag0,unknown
1499246933720,0,-76,-1.669921875E-5,29,40,61,88454,88386,1233,25366,10094,4024,937,780,Tag0,unknown
1499246933720,0,-70,-1.5380859375E-5,29,40,61,88454,88386,1233,25366,10094,4024,937,780,Tag0,unknown
1499246933721,0,-60,-1.318359375E-5,29,40,61,88454,88386,1233,25366,10094,4024,937,780,Tag0,unknown
1499246933721,0,-55,-1.20849609375E-5,29,40,61,88454,88386,1233,25366,10094,4024,937,780,Tag0,unknown
1499246933721,0,-45,-9.8876953125E-6,29,40,61,88454,88386,1233,25366,10094,4024,937,780,Tag0,unknown
1499246933721,0,-36,-7.91015625E-6,29,40,61,88454,88386,1233,25366,10094,4024,937,780,Tag0,unknown
1499246933722,0,-21,-4.614257812500001E-6,29,40,61,88454,88386,1233,25366,10094,4024,937,780,Tag0,unknown
1499246933722,0,-9,-1.9775390625E-6,29,40,61,88454,88386,1233,25366,10094,4024,937,780,Tag0,unknown
1499246933722,0,-7,-1.5380859375E-6,29,40,61,88454,88386,1233,25366,10094,4024,937,780,Tag0,unknown
1499246933722,0,-4,-8.7890625E-7,29,40,61,88454,88386,1233,25366,10094,4024,937,780,Tag0,unknown
1499246933723,0,260,5.712890625E-5,29,40,61,88454,88386,1233,25366,10094,4024,937,780,Tag0,unknown
1499246933723,0,261,5.73486328125E-5,29,40,61,88454,88386,1233,25366,10094,4024,937,780,Tag0,unknown
1499246933723,0,265,5.82275390625E-5,29,40,61,88454,88386,1233,25366,10094,4024,937,780,Tag0,unknown
1499246933724,0,273,5.998535156250001E-5,29,40,61,88454,88386,1233,25366,10094,4024,937,780,Tag0,unknown
1499246933724,0,272,5.9765625000000004E-5,29,40,61,88454,88386,1233,25366,10094,4024,937,780,Tag0,unknown
1499246933724,0,269,5.9106445312499996E-5,29,40,61,88454,88386,1233,25366,10094,4024,937,780,Tag0,unknown
1499246933725,0,264,5.80078125E-5,29,40,61,88454,88386,1233,25366,10094,4024,937,780,Tag0,unknown
1499246933725,0,-4,-8.7890625E-7,29,40,61,88454,88386,1233,25366,10094,4024,937,780,Tag0,unknown
1499246933726,0,-19,-4.1748046875E-6,29,40,61,88454,88386,1233,25366,10094,4024,937,780,Tag0,unknown
1499246933727,0,-42,-9.228515625000002E-6,29,40,61,88454,88386,1233,25366,10094,4024,937,780,Tag0,unknown
1499246933727,0,-68,-1.4941406250000001E-5,29,40,61,88454,88386,1233,25366,10094,4024,937,780,Tag0,unknown
1499246933728,0,-76,-1.669921875E-5,29,40,61,88454,88386,1233,25366,10094,4024,937,780,Tag0,unknown
1499246933728,0,-61,-1.34033203125E-5,29,40,61,88454,88386,1233,25366,10094,4024,937,780,Tag0,unknown
1499246933729,0,-42,-9.228515625000002E-6,29,40,61,88454,88386,1233,25366,10094,4024,937,780,Tag0,unknown
1499246933729,0,-41,-9.008789062499999E-6,29,40,61,88454,88386,1233,25366,10094,4024,937,780,Tag0,unknown
1499246933729,0,-52,-1.142578125E-5,29,40,61,88454,88386,1233,25366,10094,4024,937,780,Tag0,unknown
1499246933730,0,-69,-1.51611328125E-5,29,40,61,88454,88386,1233,25366,10094,4024,937,780,Tag0,unknown
1499246933730,0,-79,-1.7358398437500003E-5,29,40,61,88454,88386,1233,25366,10094,4024,937,780,Tag0,unknown
1499246933730,0,-79,-1.7358398437500003E-5,29,40,61,88454,88386,1233,25366,10094,4024,937,780,Tag0,unknown
1499246933730,0,-85,-1.86767578125E-5,29,40,61,88454,88386,1233,25366,10094,4024,937,780,Tag0,unknown
1499246933731,0,-90,-1.9775390625E-5,29,40,61,88454,88386,1233,25366,10094,4024,937,780,Tag0,unknown
1499246933731,0,-90,-1.9775390625E-5,29,40,61,88454,88386,1233,25366,10094,4024,937,780,Tag0,unknown
1499246933731,0,-91,-1.99951171875E-5,29,40,61,88454,88386,1233,25366,10094,4024,937,780,Tag0,unknown
1499246933731,0,-92,-2.021484375E-5,29,40,61,88454,88386,1233,25366,10094,4024,937,780,Tag0,unknown
1499246933732,0,-94,-2.0654296875000002E-5,29,40,61,88454,88386,1233,25366,10094,4024,937,780,Tag0,unknown
1499246933732,0,-99,-2.1752929687500003E-5,29,40,61,88454,88386,1233,25366,10094,4024,937,780,Tag0,unknown
1499246933732,0,-108,-2.3730468750000002E-5,29,40,61,88454,88386,1233,25366,10094,4024,937,780,Tag0,unknown
1499246933733,0,-115,-2.52685546875E-5,29,40,61,88454,88386,1233,25366,10094,4024,937,780,Tag0,unknown
1499246933733,0,-111,-2.43896484375E-5,29,40,61,88454,88386,1233,25366,10094,4024,937,780,Tag0,unknown
1499246933733,0,-108,-2.3730468750000002E-5,29,40,61,88454,88386,1233,25366,10094,4024,937,780,Tag0,unknown
1499246933733,0,-116,-2.548828125E-5,29,40,61,88454,88386,1233,25366,10094,4024,937,780,Tag0,unknown
1499246933734,0,-127,-2.79052734375E-5,29,40,61,88454,88386,1233,25366,10094,4024,937,780,Tag0,unknown
1499246933734,0,109,2.39501953125E-5,29,40,61,88454,88386,1233,25366,10094,4024,937,780,Tag0,unknown
1499246933734,0,85,1.86767578125E-5,29,40,61,88454,88386,1233,25366,10094,4024,937,780,Tag0,unknown
1499246933735,0,72,1.58203125E-5,29,40,61,88454,88386,1233,25366,10094,4024,937,780,Tag0,unknown
1499246933737,0,77,1.69189453125E-5,29,40,61,88454,88386,1233,25366,10094,4024,937,780,Tag0,unknown
1499246933737,0,83,1.82373046875E-5,29,40,61,88454,88386,1233,25366,10094,4024,937,780,Tag0,unknown
1499246933737,0,82,1.8017578124999998E-5,29,40,61,88454,88386,1233,25366,10094,4024,937,780,Tag0,unknown
1499246933738,0,72,1.58203125E-5,29,40,61,88454,88386,1233,25366,10094,4024,937,780,Tag0,unknown
1499246933738,0,56,1.23046875E-5,29,40,61,88454,88386,1233,25366,10094,4024,937,780,Tag0,unknown
1499246933738,0,52,1.142578125E-5,29,40,61,88454,88386,1233,25366,10094,4024,937,780,Tag0,unknown
1499246933738,0,50,1.0986328125E-5,29,40,61,88454,88386,1233,25366,10094,4024,937,780,Tag0,unknown
1499246933738,0,53,1.1645507812500002E-5,29,40,61,88454,88386,1233,25366,10094,4024,937,780,Tag0,unknown
1499246933739,0,58,1.2744140625E-5,29,40,61,88454,88386,1233,25366,10094,4024,937,780,Tag0,unknown
1499246933739,0,61,1.34033203125E-5,29,40,61,88454,88386,1233,25366,10094,4024,937,780,Tag0,unknown
1499246933739,0,67,1.4721679687500002E-5,29,40,61,88454,88386,1233,25366,10094,4024,937,780,Tag0,unknown
1499246933739,0,75,1.64794921875E-5,29,40,61,88454,88386,1233,25366,10094,4024,937,780,Tag0,unknown
1499246933740,0,81,1.77978515625E-5,29,40,61,88454,88386,1233,25366,10094,4024,937,780,Tag0,unknown
1499246933740,0,82,1.8017578124999998E-5,29,40,61,88454,88386,1233,25366,10094,4024,937,780,Tag0,unknown
1499246933740,0,82,1.8017578124999998E-5,29,40,61,88454,88386,1233,25366,10094,4024,937,780,Tag0,unknown
1499246933740,0,71,1.56005859375E-5,29,40,61,88454,88386,1233,25366,10094,4024,937,780,Tag0,unknown
1499246933741,0,58,1.2744140625E-5,29,40,61,88454,88386,1233,25366,10094,4024,937,780,Tag0,unknown
1499246933741,0,52,1.142578125E-5,29,40,61,88454,88386,1233,25366,10094,4024,937,780,Tag0,unknown
1499246933741,0,53,1.1645507812500002E-5,29,40,61,88454,88386,1233,25366,10094,4024,937,780,Tag0,unknown
1499246933741,0,57,1.2524414062500001E-5,29,40,61,88454,88386,1233,25366,10094,4024,937,780,Tag0,unknown
1499246933742,0,56,1.23046875E-5,29,40,61,88454,88386,1233,25366,10094,4024,937,780,Tag0,unknown
1499246933742,0,50,1.0986328125E-5,29,40,61,88454,88386,1233,25366,10094,4024,937,780,Tag0,unknown
1499246933742,0,38,8.349609375E-6,29,40,61,88454,88386,1233,25366,10094,4024,937,780,Tag0,unknown
1499246933742,0,33,7.2509765625E-6,29,40,61,88454,88386,1233,25366,10094,4024,937,780,Tag0,unknown
1499246933743,0,35,7.6904296875E-6,29,40,61,88454,88386,1233,25366,10094,4024,937,780,Tag0,unknown
1499246933743,0,37,8.1298828125E-6,29,40,61,88454,88386,1233,25366,10094,4024,937,780,Tag0,unknown
1499246933743,0,33,7.2509765625E-6,29,40,61,88454,88386,1233,25366,10094,4024,937,780,Tag0,unknown
1499246933743,0,20,4.39453125E-6,29,40,61,88454,88386,1233,25366,10094,4024,937,780,Tag0,unknown
1499246933743,0,12,2.63671875E-6,29,40,61,88454,88386,1233,25366,10094,4024,937,780,Tag0,unknown
1499246933744,0,22,4.833984375E-6,29,40,61,88454,88386,1233,25366,10094,4024,937,780,Tag0,unknown
1499246933744,0,36,7.91015625E-6,29,40,61,88454,88386,1233,25366,10094,4024,937,780,Tag0,unknown
1499246933744,0,44,9.66796875E-6,29,40,61,88454,88386,1233,25366,10094,4024,937,780,Tag0,unknown
1499246933744,0,52,1.142578125E-5,29,40,61,88454,88386,1233,25366,10094,4024,937,780,Tag0,unknown
1499246933745,0,56,1.23046875E-5,29,40,61,88454,88386,1233,25366,10094,4024,937,780,Tag0,unknown
1499246933745,0,66,1.4501953125E-5,29,40,61,88454,88386,1233,25366,10094,4024,937,780,Tag0,unknown
1499246933745,0,70,1.5380859375E-5,29,40,61,88454,88386,1233,25366,10094,4024,937,780,Tag0,unknown
1499246933745,0,73,1.6040039062500002E-5,29,40,61,88454,88386,1233,25366,10094,4024,937,780,Tag0,unknown
1499246933746,0,76,1.669921875E-5,29,40,61,88454,88386,1233,25366,10094,4024,937,780,Tag0,unknown
1499246933746,0,86,1.8896484375000003E-5,29,40,61,88454,88386,1233,25366,10094,4024,937,780,Tag0,unknown
1499246933746,0,98,2.1533203125E-5,29,40,61,88454,88386,1233,25366,10094,4024,937,780,Tag0,unknown
1499246933746,0,101,2.2192382812500002E-5,29,40,61,88454,88386,1233,25366,10094,4024,937,780,Tag0,unknown
1499246933746,0,105,2.30712890625E-5,29,40,61,88454,88386,1233,25366,10094,4024,937,780,Tag0,unknown
1499246933747,0,108,2.3730468750000002E-5,29,40,61,88454,88386,1233,25366,10094,4024,937,780,Tag0,unknown
1499246933747,0,101,2.2192382812500002E-5,29,40,61,88454,88386,1233,25366,10094,4024,937,780,Tag0,unknown
1499246933747,0,89,1.95556640625E-5,29,40,61,88454,88386,1233,25366,10094,4024,937,780,Tag0,unknown
1499246933747,0,87,1.91162109375E-5,29,40,61,88454,88386,1233,25366,10094,4024,937,780,Tag0,unknown
1499246933748,0,97,2.13134765625E-5,29,40,61,88454,88386,1233,25366,10094,4024,937,780,Tag0,unknown
1499246933748,0,107,2.35107421875E-5,29,40,61,88454,88386,1233,25366,10094,4024,937,780,Tag0,unknown
1499246933748,0,120,2.63671875E-5,29,40,61,88454,88386,1233,25366,10094,4024,937,780,Tag0,unknown
1499246933748,0,116,2.548828125E-5,29,40,61,88454,88386,1233,25366,10094,4024,937,780,Tag0,unknown
1499246933749,0,102,2.2412109374999998E-5,29,40,61,88454,88386,1233,25366,10094,4024,937,780,Tag0,unknown
1499246933749,0,92,2.021484375E-5,29,40,61,88454,88386,1233,25366,10094,4024,937,780,Tag0,unknown
1499246933749,0,82,1.8017578124999998E-5,29,40,61,88454,88386,1233,25366,10094,4024,937,780,Tag0,unknown
1499246933749,0,77,1.69189453125E-5,29,40,61,88454,88386,1233,25366,10094,4024,937,780,Tag0,unknown
1499246933749,0,96,2.109375E-5,29,40,61,88454,88386,1233,25366,10094,4024,937,780,Tag0,unknown
1499246933750,0,117,2.5708007812499998E-5,29,40,61,88454,88386,1233,25366,10094,4024,937,780,Tag0,unknown
1499246933750,0,125,2.74658203125E-5,29,40,61,88454,88386,1233,25366,10094,4024,937,780,Tag0,unknown
1499246933750,0,104,2.28515625E-5,29,40,61,88454,88386,1233,25366,10094,4024,937,780,Tag0,unknown
1499246933750,0,74,1.6259765625E-5,29,40,61,88454,88386,1233,25366,10094,4024,937,780,Tag0,unknown
1499246933751,0,84,1.8457031250000004E-5,29,40,61,88454,88386,1233,25366,10094,4024,937,780,Tag0,unknown
1499246933751,0,116,2.548828125E-5,29,40,61,88454,88386,1233,25366,10094,4024,937,780,Tag0,unknown
1499246933751,0,-120,-2.63671875E-5,29,40,61,88454,88386,1233,25366,10094,4024,937,780,Tag0,unknown
1499246933751,0,-120,-2.63671875E-5,29,40,61,88454,88386,1233,25366,10094,4024,937,780,Tag0,unknown
1499246933751,0,115,2.52685546875E-5,29,40,61,88454,88386,1233,25366,10094,4024,937,780,Tag0,unknown
1499246933752,0,100,2.197265625E-5,29,40,61,88454,88386,1233,25366,10094,4024,937,780,Tag0,unknown
1499246933752,0,106,2.3291015625000003E-5,29,40,61,88454,88386,1233,25366,10094,4024,937,780,Tag0,unknown
1499246933752,0,123,2.70263671875E-5,29,40,61,88454,88386,1233,25366,10094,4024,937,780,Tag0,unknown
1499246933752,0,-125,-2.74658203125E-5,29,40,61,88454,88386,1233,25366,10094,4024,937,780,Tag0,unknown
1499246933753,0,123,2.70263671875E-5,29,40,61,88454,88386,1233,25366,10094,4024,937,780,Tag0,unknown
1499246933753,0,124,2.724609375E-5,29,40,61,88454,88386,1233,25366,10094,4024,937,780,Tag0,unknown
1499246933753,0,-119,-2.6147460937500004E-5,29,40,61,88454,88386,1233,25366,10094,4024,937,780,Tag0,unknown
1499246933753,0,-108,-2.3730468750000002E-5,29,40,61,88454,88386,1233,25366,10094,4024,937,780,Tag0,unknown
1499246933753,0,-110,-2.4169921875E-5,29,40,61,88454,88386,1233,25366,10094,4024,937,780,Tag0,unknown
1499246933754,0,-126,-2.7685546875E-5,29,40,61,88454,88386,1233,25366,10094,4024,937,780,Tag0,unknown
1499246933754,0,113,2.48291015625E-5,29,40,61,88454,88386,1233,25366,10094,4024,937,780,Tag0,unknown
1499246933754,0,114,2.5048828125000003E-5,29,40,61,88454,88386,1233,25366,10094,4024,937,780,Tag0,unknown
1499246933754,0,-126,-2.7685546875E-5,29,40,61,88454,88386,1233,25366,10094,4024,937,780,Tag0,unknown
1499246933755,0,-118,-2.5927734375E-5,29,40,61,88454,88386,1233,25366,10094,4024,937,780,Tag0,unknown
1499246933755,0,-112,-2.4609375E-5,29,40,61,88454,88386,1233,25366,10094,4024,937,780,Tag0,unknown
1499246933755,0,-112,-2.4609375E-5,29,40,61,88454,88386,1233,25366,10094,4024,937,780,Tag0,unknown
1499246933755,0,-116,-2.548828125E-5,29,40,61,88454,88386,1233,25366,10094,4024,937,780,Tag0,unknown
1499246933756,0,-117,-2.5708007812499998E-5,29,40,61,88454,88386,1233,25366,10094,4024,937,780,Tag0,unknown
1499246933756,0,-122,-2.6806640625E-5,29,40,61,88454,88386,1233,25366,10094,4024,937,780,Tag0,unknown
1499246933756,0,-128,-2.8125E-5,29,40,61,88454,88386,1233,25366,10094,4024,937,780,Tag0,unknown
1499246933756,0,124,2.724609375E-5,29,40,61,88454,88386,1233,25366,10094,4024,937,780,Tag0,unknown
1499246933757,0,-127,-2.79052734375E-5,29,40,61,88454,88386,1233,25366,10094,4024,937,780,Tag0,unknown
1499246933757,0,-122,-2.6806640625E-5,29,40,61,88454,88386,1233,25366,10094,4024,937,780,Tag0,unknown
1499246933757,0,-123,-2.70263671875E-5,29,40,61,88454,88386,1233,25366,10094,4024,937,780,Tag0,unknown
1499246933757,0,-123,-2.70263671875E-5,29,40,61,88454,88386,1233,25366,10094,4024,937,780,Tag0,unknown
1499246933757,0,-120,-2.63671875E-5,29,40,61,88454,88386,1233,25366,10094,4024,937,780,Tag0,unknown
1499246933758,0,123,2.70263671875E-5,29,40,61,88454,88386,1233,25366,10094,4024,937,780,Tag0,unknown
1499246933758,0,99,2.1752929687500003E-5,29,40,61,88454,88386,1233,25366,10094,4024,937,780,Tag0,unknown
1499246933758,0,87,1.91162109375E-5,29,40,61,88454,88386,1233,25366,10094,4024,937,780,Tag0,unknown
1499246933758,0,84,1.8457031250000004E-5,29,40,61,88454,88386,1233,25366,10094,4024,937,780,Tag0,unknown
1499246933758,0,75,1.64794921875E-5,29,40,61,88454,88386,1233,25366,10094,4024,937,780,Tag0,unknown
1499246933759,0,68,1.4941406250000001E-5,29,40,61,88454,88386,1233,25366,10094,4024,937,780,Tag0,unknown
1499246933759,0,70,1.5380859375E-5,29,40,61,88454,88386,1233,25366,10094,4024,937,780,Tag0,unknown
1499246933759,0,77,1.69189453125E-5,29,40,61,88454,88386,1233,25366,10094,4024,937,780,Tag0,unknown
1499246933759,0,76,1.669921875E-5,29,40,61,88454,88386,1233,25366,10094,4024,937,780,Tag0,unknown
1499246933759,0,70,1.5380859375E-5,29,40,61,88454,88386,1233,25366,10094,4024,937,780,Tag0,unknown
1499246933760,0,69,1.51611328125E-5,29,40,61,88454,88386,1233,25366,10094,4024,937,780,Tag0,unknown
1499246933760,0,74,1.6259765625E-5,29,40,61,88454,88386,1233,25366,10094,4024,937,780,Tag0,unknown
1499246933760,0,80,1.7578125E-5,29,40,61,88454,88386,1233,25366,10094,4024,937,780,Tag0,unknown
1499246933760,0,76,1.669921875E-5,29,40,61,88454,88386,1233,25366,10094,4024,937,780,Tag0,unknown
1499246933760,0,80,1.7578125E-5,29,40,61,88454,88386,1233,25366,10094,4024,937,780,Tag0,unknown
1499246933761,0,75,1.64794921875E-5,29,40,61,88454,88386,1233,25366,10094,4024,937,780,Tag0,unknown
1499246933761,0,75,1.64794921875E-5,29,40,61,88454,88386,1233,25366,10094,4024,937,780,Tag0,unknown
1499246933761,0,81,1.77978515625E-5,29,40,61,88454,88386,1233,25366,10094,4024,937,780,Tag0,unknown
1499246933761,0,76,1.669921875E-5,29,40,61,88454,88386,1233,25366,10094,4024,937,780,Tag0,unknown
1499246933761,0,70,1.5380859375E-5,29,40,61,88454,88386,1233,25366,10094,4024,937,780,Tag0,unknown
1499246933762,0,71,1.56005859375E-5,29,40,61,88454,88386,1233,25366,10094,4024,937,780,Tag0,unknown
1499246933762,0,76,1.669921875E-5,29,40,61,88454,88386,1233,25366,10094,4024,937,780,Tag0,unknown
1499246933762,0,74,1.6259765625E-5,29,40,61,88454,88386,1233,25366,10094,4024,937,780,Tag0,unknown
1499246933762,0,71,1.56005859375E-5,29,40,61,88454,88386,1233,25366,10094,4024,937,780,Tag0,unknown
1499246933762,0,67,1.4721679687500002E-5,29,40,61,88454,88386,1233,25366,10094,4024,937,780,Tag0,unknown
1499246933763,0,66,1.4501953125E-5,29,40,61,88454,88386,1233,25366,10094,4024,937,780,Tag0,unknown
1499246933763,0,74,1.6259765625E-5,29,40,61,88454,88386,1233,25366,10094,4024,937,780,Tag0,unknown
1499246933763,0,89,1.95556640625E-5,29,40,61,88454,88386,1233,25366,10094,4024,937,780,Tag0,unknown
1499246933763,0,91,1.99951171875E-5,29,40,61,88454,88386,1233,25366,10094,4024,937,780,Tag0,unknown
1499246933763,0,75,1.64794921875E-5,29,40,61,88454,88386,1233,25366,10094,4024,937,780,Tag0,unknown
1499246933764,0,64,1.40625E-5,29,40,61,88454,88386,1233,25366,10094,4024,937,780,Tag0,unknown
1499246933764,0,61,1.34033203125E-5,29,40,61,88454,88386,1233,25366,10094,4024,937,780,Tag0,unknown
1499246933764,0,58,1.2744140625E-5,29,40,61,88454,88386,1233,25366,10094,4024,937,780,Tag0,unknown
1499246933764,0,56,1.23046875E-5,29,40,61,88454,88386,1233,25366,10094,4024,937,780,Tag0,unknown
1499246933764,0,55,1.20849609375E-5,29,40,61,88454,88386,1233,25366,10094,4024,937,780,Tag0,unknown
1499246933765,0,57,1.2524414062500001E-5,29,40,61,88454,88386,1233,25366,10094,4024,937,780,Tag0,unknown
1499246933765,0,66,1.4501953125E-5,29,40,61,88454,88386,1233,25366,10094,4024,937,780,Tag0,unknown
1499246933765,0,66,1.4501953125E-5,29,40,61,88454,88386,1233,25366,10094,4024,937,780,Tag0,unknown
1499246933765,0,59,1.29638671875E-5,29,40,61,88454,88386,1233,25366,10094,4024,937,780,Tag0,unknown
1499246933765,0,53,1.1645507812500002E-5,29,40,61,88454,88386,1233,25366,10094,4024,937,780,Tag0,unknown
1499246933766,0,49,1.07666015625E-5,29,40,61,88454,88386,1233,25366,10094,4024,937,780,Tag0,unknown
1499246933766,0,49,1.07666015625E-5,29,40,61,88454,88386,1233,25366,10094,4024,937,780,Tag0,unknown
1499246933766,0,51,1.1206054687499999E-5,29,40,61,88454,88386,1233,25366,10094,4024,937,780,Tag0,unknown
1499246933766,0,49,1.07666015625E-5,29,40,61,88454,88386,1233,25366,10094,4024,937,780,Tag0,unknown
1499246933767,0,49,1.07666015625E-5,29,40,61,88454,88386,1233,25366,10094,4024,937,780,Tag0,unknown
1499246933767,0,45,9.8876953125E-6,29,40,61,88454,88386,1233,25366,10094,4024,937,780,Tag0,unknown
1499246933767,0,50,1.0986328125E-5,29,40,61,88454,88386,1233,25366,10094,4024,937,780,Tag0,unknown
1499246933767,0,54,1.1865234375000001E-5,29,40,61,88454,88386,1233,25366,10094,4024,937,780,Tag0,unknown
1499246933767,0,55,1.20849609375E-5,29,40,61,88454,88386,1233,25366,10094,4024,937,780,Tag0,unknown
1499246933770,0,56,1.23046875E-5,29,40,61,88454,88386,1233,25366,10094,4024,937,780,Tag0,unknown
1499246933770,0,53,1.1645507812500002E-5,29,40,61,88454,88386,1233,25366,10094,4024,937,780,Tag0,unknown
1499246933770,0,52,1.142578125E-5,29,40,61,88454,88386,1233,25366,10094,4024,937,780,Tag0,unknown
1499246933771,0,49,1.07666015625E-5,29,40,61,88454,88386,1233,25366,10094,4024,937,780,Tag0,unknown
1499246933771,0,42,9.228515625000002E-6,29,40,61,88454,88386,1233,25366,10094,4024,937,780,Tag0,unknown
1499246933771,0,28,6.15234375E-6,29,40,61,88454,88386,1233,25366,10094,4024,937,780,Tag0,unknown
1499246933771,0,4,8.7890625E-7,29,40,61,88454,88386,1233,25366,10094,4024,937,780,Tag0,unknown
1499246933771,0,-263,-5.7788085937500005E-5,29,40,61,88454,88386,1233,25366,10094,4024,937,780,Tag0,unknown
1499246933772,0,0,0.0,29,40,61,88454,88386,1233,25366,10094,4024,937,780,Tag0,unknown
1499246933772,0,21,4.614257812500001E-6,29,40,61,88454,88386,1233,25366,10094,4024,937,780,Tag0,unknown
1499246933772,0,33,7.2509765625E-6,29,40,61,88454,88386,1233,25366,10094,4024,937,780,Tag0,unknown
1499246933772,0,27,5.9326171875000005E-6,29,40,61,88454,88386,1233,25366,10094,4024,937,780,Tag0,unknown
1499246933772,0,21,4.614257812500001E-6,29,40,61,88454,88386,1233,25366,10094,4024,937,780,Tag0,unknown
1499246933773,0,24,5.2734375E-6,29,40,61,88454,88386,1233,25366,10094,4024,937,780,Tag0,unknown
1499246933773,0,36,7.91015625E-6,29,40,61,88454,88386,1233,25366,10094,4024,937,780,Tag0,unknown
1499246933773,0,45,9.8876953125E-6,29,40,61,88454,88386,1233,25366,10094,4024,937,780,Tag0,unknown
1499246933773,0,50,1.0986328125E-5,29,40,61,88454,88386,1233,25366,10094,4024,937,780,Tag0,unknown
1499246933774,0,44,9.66796875E-6,29,40,61,88454,88386,1233,25366,10094,4024,937,780,Tag0,unknown
1499246933774,0,43,9.448242187500001E-6,29,40,61,88454,88386,1233,25366,10094,4024,937,780,Tag0,unknown
1499246933775,0,52,1.142578125E-5,29,40,61,88454,88386,1233,25366,10094,4024,937,780,Tag0,unknown
1499246933775,0,64,1.40625E-5,29,40,61,88454,88386,1233,25366,10094,4024,937,780,Tag0,unknown
1499246933775,0,70,1.5380859375E-5,29,40,61,88454,88386,1233,25366,10094,4024,937,780,Tag0,unknown
1499246933775,0,58,1.2744140625E-5,29,40,61,88454,88386,1233,25366,10094,4024,937,780,Tag0,unknown
1499246933776,0,40,8.7890625E-6,29,40,61,88454,88386,1233,25366,10094,4024,937,780,Tag0,unknown
1499246933776,0,29,6.3720703125E-6,29,40,61,88454,88386,1233,25366,10094,4024,937,780,Tag0,unknown
1499246933777,0,41,9.008789062499999E-6,29,40,61,88454,88386,1233,25366,10094,4024,937,780,Tag0,unknown
1499246933777,0,66,1.4501953125E-5,29,40,61,88454,88386,1233,25366,10094,4024,937,780,Tag0,unknown
1499246933777,0,68,1.4941406250000001E-5,29,40,61,88454,88386,1233,25366,10094,4024,937,780,Tag0,unknown
1499246933777,0,52,1.142578125E-5,29,40,61,88454,88386,1233,25366,10094,4024,937,780,Tag0,unknown
1499246933777,0,49,1.07666015625E-5,29,40,61,88454,88386,1233,25366,10094,4024,937,780,Tag0,unknown
1499246933777,0,56,1.23046875E-5,29,40,61,88454,88386,1233,25366,10094,4024,937,780,Tag0,unknown
1499246933778,0,60,1.318359375E-5,29,40,61,88454,88386,1233,25366,10094,4024,937,780,Tag0,unknown
1499246933778,0,54,1.1865234375000001E-5,29,40,61,88454,88386,1233,25366,10094,4024,937,780,Tag0,unknown
1499246933778,0,41,9.008789062499999E-6,29,40,61,88454,88386,1233,25366,10094,4024,937,780,Tag0,unknown
1499246933778,0,40,8.7890625E-6,29,40,61,88454,88386,1233,25366,10094,4024,937,780,Tag0,unknown
1499246933787,0,51,1.1206054687499999E-5,24,14,61,72635,17732,226,774,1977,139,98,60,Tag0,unknown
1499246933788,0,48,1.0546875E-5,24,14,61,72635,17732,226,774,1977,139,98,60,Tag0,unknown
1499246933788,0,19,4.1748046875E-6,24,14,61,72635,17732,226,774,1977,139,98,60,Tag0,unknown
1499246933788,0,3,6.591796875E-7,24,14,61,72635,17732,226,774,1977,139,98,60,Tag0,unknown
1499246933788,0,20,4.39453125E-6,24,14,61,72635,17732,226,774,1977,139,98,60,Tag0,unknown
1499246933788,0,36,7.91015625E-6,24,14,61,72635,17732,226,774,1977,139,98,60,Tag0,unknown
1499246933788,0,26,5.712890625E-6,24,14,61,72635,17732,226,774,1977,139,98,60,Tag0,unknown
1499246933789,0,12,2.63671875E-6,24,14,61,72635,17732,226,774,1977,139,98,60,Tag0,unknown
1499246933789,0,8,1.7578125E-6,24,14,61,72635,17732,226,774,1977,139,98,60,Tag0,unknown
1499246933789,0,20,4.39453125E-6,24,14,61,72635,17732,226,774,1977,139,98,60,Tag0,unknown
1499246933789,0,33,7.2509765625E-6,24,14,61,72635,17732,226,774,1977,139,98,60,Tag0,unknown
1499246933789,0,33,7.2509765625E-6,24,14,61,72635,17732,226,774,1977,139,98,60,Tag0,unknown
1499246933790,0,27,5.9326171875000005E-6,24,14,61,72635,17732,226,774,1977,139,98,60,Tag0,unknown
1499246933790,0,19,4.1748046875E-6,24,14,61,72635,17732,226,774,1977,139,98,60,Tag0,unknown
1499246933790,0,9,1.9775390625E-6,24,14,61,72635,17732,226,774,1977,139,98,60,Tag0,unknown
1499246933790,0,11,2.4169921875E-6,24,14,61,72635,17732,226,774,1977,139,98,60,Tag0,unknown
1499246933790,0,25,5.4931640625E-6,24,14,61,72635,17732,226,774,1977,139,98,60,Tag0,unknown
1499246933790,0,41,9.008789062499999E-6,24,14,61,72635,17732,226,774,1977,139,98,60,Tag0,unknown
1499246933791,0,51,1.1206054687499999E-5,24,14,61,72635,17732,226,774,1977,139,98,60,Tag0,unknown
1499246933791,0,60,1.318359375E-5,24,14,61,72635,17732,226,774,1977,139,98,60,Tag0,unknown
1499246933791,0,58,1.2744140625E-5,24,14,61,72635,17732,226,774,1977,139,98,60,Tag0,unknown
1499246933791,0,36,7.91015625E-6,24,14,61,72635,17732,226,774,1977,139,98,60,Tag0,unknown
1499246933791,0,17,3.7353515625000003E-6,24,14,61,72635,17732,226,774,1977,139,98,60,Tag0,unknown
1499246933791,0,26,5.712890625E-6,24,14,61,72635,17732,226,774,1977,139,98,60,Tag0,unknown
1499246933792,0,41,9.008789062499999E-6,24,14,61,72635,17732,226,774,1977,139,98,60,Tag0,unknown
1499246933792,0,41,9.008789062499999E-6,24,14,61,72635,17732,226,774,1977,139,98,60,Tag0,unknown
1499246933792,0,33,7.2509765625E-6,24,14,61,72635,17732,226,774,1977,139,98,60,Tag0,unknown
1499246933792,0,11,2.4169921875E-6,24,14,61,72635,17732,226,774,1977,139,98,60,Tag0,unknown
1499246933792,0,-257,-5.64697265625E-5,24,14,61,72635,17732,226,774,1977,139,98,60,Tag0,unknown
1499246933792,0,2,4.39453125E-7,24,14,61,72635,17732,226,774,1977,139,98,60,Tag0,unknown
1499246933793,0,9,1.9775390625E-6,24,14,61,72635,17732,226,774,1977,139,98,60,Tag0,unknown
1499246933793,0,11,2.4169921875E-6,24,14,61,72635,17732,226,774,1977,139,98,60,Tag0,unknown
1499246933793,0,12,2.63671875E-6,24,14,61,72635,17732,226,774,1977,139,98,60,Tag0,unknown
1499246933793,0,16,3.515625E-6,24,14,61,72635,17732,226,774,1977,139,98,60,Tag0,unknown
1499246933793,0,25,5.4931640625E-6,24,14,61,72635,17732,226,774,1977,139,98,60,Tag0,unknown
1499246933793,0,38,8.349609375E-6,24,14,61,72635,17732,226,774,1977,139,98,60,Tag0,unknown
1499246933794,0,40,8.7890625E-6,24,14,61,72635,17732,226,774,1977,139,98,60,Tag0,unknown
1499246933794,0,26,5.712890625E-6,24,14,61,72635,17732,226,774,1977,139,98,60,Tag0,unknown
1499246933794,0,7,1.5380859375E-6,24,14,61,72635,17732,226,774,1977,139,98,60,Tag0,unknown
1499246933794,0,-260,-5.712890625E-5,24,14,61,72635,17732,226,774,1977,139,98,60,Tag0,unknown
1499246933794,0,0,0.0,24,14,61,72635,17732,226,774,1977,139,98,60,Tag0,unknown
1499246933794,0,6,1.318359375E-6,24,14,61,72635,17732,226,774,1977,139,98,60,Tag0,unknown
1499246933795,0,5,1.0986328125E-6,24,14,61,72635,17732,226,774,1977,139,98,60,Tag0,unknown
1499246933795,0,-259,-5.69091796875E-5,24,14,61,72635,17732,226,774,1977,139,98,60,Tag0,unknown
1499246933795,0,-275,-6.04248046875E-5,24,14,61,72635,17732,226,774,1977,139,98,60,Tag0,unknown
1499246933795,0,-282,-6.1962890625E-5,24,14,61,72635,17732,226,774,1977,139,98,60,Tag0,unknown
1499246933795,0,-267,-5.86669921875E-5,24,14,61,72635,17732,226,774,1977,139,98,60,Tag0,unknown
1499246933796,0,7,1.5380859375E-6,24,14,61,72635,17732,226,774,1977,139,98,60,Tag0,unknown
1499246933796,0,10,2.197265625E-6,24,14,61,72635,17732,226,774,1977,139,98,60,Tag0,unknown
1499246933796,0,8,1.7578125E-6,24,14,61,72635,17732,226,774,1977,139,98,60,Tag0,unknown
1499246933796,0,5,1.0986328125E-6,24,14,61,72635,17732,226,774,1977,139,98,60,Tag0,unknown
1499246933796,0,5,1.0986328125E-6,24,14,61,72635,17732,226,774,1977,139,98,60,Tag0,unknown
1499246933796,0,8,1.7578125E-6,24,14,61,72635,17732,226,774,1977,139,98,60,Tag0,unknown
1499246933797,0,17,3.7353515625000003E-6,24,14,61,72635,17732,226,774,1977,139,98,60,Tag0,unknown
1499246933797,0,20,4.39453125E-6,24,14,61,72635,17732,226,774,1977,139,98,60,Tag0,unknown
1499246933797,0,13,2.8564453125E-6,24,14,61,72635,17732,226,774,1977,139,98,60,Tag0,unknown
1499246933797,0,9,1.9775390625E-6,24,14,61,72635,17732,226,774,1977,139,98,60,Tag0,unknown
1499246933797,0,9,1.9775390625E-6,24,14,61,72635,17732,226,774,1977,139,98,60,Tag0,unknown
1499246933797,0,16,3.515625E-6,24,14,61,72635,17732,226,774,1977,139,98,60,Tag0,unknown
1499246933798,0,18,3.955078125E-6,24,14,61,72635,17732,226,774,1977,139,98,60,Tag0,unknown
1499246933798,0,12,2.63671875E-6,24,14,61,72635,17732,226,774,1977,139,98,60,Tag0,unknown
1499246933798,0,6,1.318359375E-6,24,14,61,72635,17732,226,774,1977,139,98,60,Tag0,unknown
1499246933798,0,5,1.0986328125E-6,24,14,61,72635,17732,226,774,1977,139,98,60,Tag0,unknown
1499246933798,0,19,4.1748046875E-6,24,14,61,72635,17732,226,774,1977,139,98,60,Tag0,unknown
1499246933798,0,36,7.91015625E-6,24,14,61,72635,17732,226,774,1977,139,98,60,Tag0,unknown
1499246933799,0,43,9.448242187500001E-6,24,14,61,72635,17732,226,774,1977,139,98,60,Tag0,unknown
1499246933799,0,44,9.66796875E-6,24,14,61,72635,17732,226,774,1977,139,98,60,Tag0,unknown
1499246933799,0,48,1.0546875E-5,24,14,61,72635,17732,226,774,1977,139,98,60,Tag0,unknown
1499246933799,0,52,1.142578125E-5,24,14,61,72635,17732,226,774,1977,139,98,60,Tag0,unknown
1499246933799,0,53,1.1645507812500002E-5,24,14,61,72635,17732,226,774,1977,139,98,60,Tag0,unknown
1499246933799,0,56,1.23046875E-5,24,14,61,72635,17732,226,774,1977,139,98,60,Tag0,unknown
1499246933800,0,68,1.4941406250000001E-5,24,14,61,72635,17732,226,774,1977,139,98,60,Tag0,unknown
1499246933800,0,71,1.56005859375E-5,24,14,61,72635,17732,226,774,1977,139,98,60,Tag0,unknown
1499246933800,0,70,1.5380859375E-5,24,14,61,72635,17732,226,774,1977,139,98,60,Tag0,unknown
1499246933800,0,75,1.64794921875E-5,24,14,61,72635,17732,226,774,1977,139,98,60,Tag0,unknown
1499246933800,0,80,1.7578125E-5,24,14,61,72635,17732,226,774,1977,139,98,60,Tag0,unknown
1499246933800,0,71,1.56005859375E-5,24,14,61,72635,17732,226,774,1977,139,98,60,Tag0,unknown
1499246933801,0,65,1.42822265625E-5,24,14,61,72635,17732,226,774,1977,139,98,60,Tag0,unknown
1499246933801,0,59,1.29638671875E-5,24,14,61,72635,17732,226,774,1977,139,98,60,Tag0,unknown
1499246933801,0,50,1.0986328125E-5,24,14,61,72635,17732,226,774,1977,139,98,60,Tag0,unknown
1499246933801,0,43,9.448242187500001E-6,24,14,61,72635,17732,226,774,1977,139,98,60,Tag0,unknown
1499246933801,0,50,1.0986328125E-5,24,14,61,72635,17732,226,774,1977,139,98,60,Tag0,unknown
1499246933801,0,58,1.2744140625E-5,24,14,61,72635,17732,226,774,1977,139,98,60,Tag0,unknown
1499246933802,0,55,1.20849609375E-5,24,14,61,72635,17732,226,774,1977,139,98,60,Tag0,unknown
1499246933802,0,41,9.008789062499999E-6,24,14,61,72635,17732,226,774,1977,139,98,60,Tag0,unknown
1499246933802,0,34,7.4707031250000005E-6,24,14,61,72635,17732,226,774,1977,139,98,60,Tag0,unknown
1499246933802,0,35,7.6904296875E-6,24,14,61,72635,17732,226,774,1977,139,98,60,Tag0,unknown
1499246933802,0,44,9.66796875E-6,24,14,61,72635,17732,226,774,1977,139,98,60,Tag0,unknown
1499246933802,0,50,1.0986328125E-5,24,14,61,72635,17732,226,774,1977,139,98,60,Tag0,unknown
1499246933803,0,44,9.66796875E-6,24,14,61,72635,17732,226,774,1977,139,98,60,Tag0,unknown
1499246933803,0,54,1.1865234375000001E-5,24,14,61,72635,17732,226,774,1977,139,98,60,Tag0,unknown
1499246933803,0,71,1.56005859375E-5,24,14,61,72635,17732,226,774,1977,139,98,60,Tag0,unknown
1499246933803,0,73,1.6040039062500002E-5,24,14,61,72635,17732,226,774,1977,139,98,60,Tag0,unknown
1499246933803,0,64,1.40625E-5,24,14,61,72635,17732,226,774,1977,139,98,60,Tag0,unknown
1499246933803,0,48,1.0546875E-5,24,14,61,72635,17732,226,774,1977,139,98,60,Tag0,unknown
1499246933804,0,40,8.7890625E-6,24,14,61,72635,17732,226,774,1977,139,98,60,Tag0,unknown
1499246933804,0,49,1.07666015625E-5,24,14,61,72635,17732,226,774,1977,139,98,60,Tag0,unknown
1499246933804,0,65,1.42822265625E-5,24,14,61,72635,17732,226,774,1977,139,98,60,Tag0,unknown
1499246933804,0,71,1.56005859375E-5,24,14,61,72635,17732,226,774,1977,139,98,60,Tag0,unknown
1499246933804,0,69,1.51611328125E-5,24,14,61,72635,17732,226,774,1977,139,98,60,Tag0,unknown
1499246933805,0,66,1.4501953125E-5,24,14,61,72635,17732,226,774,1977,139,98,60,Tag0,unknown
1499246933805,0,69,1.51611328125E-5,24,14,61,72635,17732,226,774,1977,139,98,60,Tag0,unknown
1499246933805,0,70,1.5380859375E-5,24,14,61,72635,17732,226,774,1977,139,98,60,Tag0,unknown
1499246933805,0,68,1.4941406250000001E-5,24,14,61,72635,17732,226,774,1977,139,98,60,Tag0,unknown
1499246933805,0,69,1.51611328125E-5,24,14,61,72635,17732,226,774,1977,139,98,60,Tag0,unknown
1499246933806,0,72,1.58203125E-5,24,14,61,72635,17732,226,774,1977,139,98,60,Tag0,unknown
1499246933806,0,71,1.56005859375E-5,24,14,61,72635,17732,226,774,1977,139,98,60,Tag0,unknown
1499246933806,0,72,1.58203125E-5,24,14,61,72635,17732,226,774,1977,139,98,60,Tag0,unknown
1499246933806,0,68,1.4941406250000001E-5,24,14,61,72635,17732,226,774,1977,139,98,60,Tag0,unknown
1499246933806,0,54,1.1865234375000001E-5,24,14,61,72635,17732,226,774,1977,139,98,60,Tag0,unknown
1499246933806,0,53,1.1645507812500002E-5,24,14,61,72635,17732,226,774,1977,139,98,60,Tag0,unknown
1499246933807,0,60,1.318359375E-5,24,14,61,72635,17732,226,774,1977,139,98,60,Tag0,unknown
1499246933807,0,68,1.4941406250000001E-5,24,14,61,72635,17732,226,774,1977,139,98,60,Tag0,unknown
1499246933807,0,70,1.5380859375E-5,24,14,61,72635,17732,226,774,1977,139,98,60,Tag0,unknown
1499246933807,0,66,1.4501953125E-5,24,14,61,72635,17732,226,774,1977,139,98,60,Tag0,unknown
1499246933807,0,57,1.2524414062500001E-5,24,14,61,72635,17732,226,774,1977,139,98,60,Tag0,unknown
1499246933807,0,54,1.1865234375000001E-5,24,14,61,72635,17732,226,774,1977,139,98,60,Tag0,unknown
1499246933808,0,39,8.5693359375E-6,24,14,61,72635,17732,226,774,1977,139,98,60,Tag0,unknown
1499246933808,0,28,6.15234375E-6,24,14,61,72635,17732,226,774,1977,139,98,60,Tag0,unknown
1499246933808,0,33,7.2509765625E-6,24,14,61,72635,17732,226,774,1977,139,98,60,Tag0,unknown
1499246933808,0,44,9.66796875E-6,24,14,61,72635,17732,226,774,1977,139,98,60,Tag0,unknown
1499246933808,0,76,1.669921875E-5,24,14,61,72635,17732,226,774,1977,139,98,60,Tag0,unknown
1499246933808,0,104,2.28515625E-5,24,14,61,72635,17732,226,774,1977,139,98,60,Tag0,unknown
1499246933809,0,104,2.28515625E-5,24,14,61,72635,17732,226,774,1977,139,98,60,Tag0,unknown
1499246933809,0,89,1.95556640625E-5,24,14,61,72635,17732,226,774,1977,139,98,60,Tag0,unknown
1499246933809,0,87,1.91162109375E-5,24,14,61,72635,17732,226,774,1977,139,98,60,Tag0,unknown
1499246933809,0,91,1.99951171875E-5,24,14,61,72635,17732,226,774,1977,139,98,60,Tag0,unknown
1499246933809,0,97,2.13134765625E-5,24,14,61,72635,17732,226,774,1977,139,98,60,Tag0,unknown
1499246933810,0,100,2.197265625E-5,24,14,61,72635,17732,226,774,1977,139,98,60,Tag0,unknown
1499246933810,0,113,2.48291015625E-5,24,14,61,72635,17732,226,774,1977,139,98,60,Tag0,unknown
1499246933810,0,-126,-2.7685546875E-5,24,14,61,72635,17732,226,774,1977,139,98,60,Tag0,unknown
1499246933810,0,-116,-2.548828125E-5,24,14,61,72635,17732,226,774,1977,139,98,60,Tag0,unknown
1499246933810,0,-112,-2.4609375E-5,24,14,61,72635,17732,226,774,1977,139,98,60,Tag0,unknown
1499246933810,0,-121,-2.6586914062500003E-5,24,14,61,72635,17732,226,774,1977,139,98,60,Tag0,unknown
1499246933811,0,122,2.6806640625E-5,24,14,61,72635,17732,226,774,1977,139,98,60,Tag0,unknown
1499246933811,0,117,2.5708007812499998E-5,24,14,61,72635,17732,226,774,1977,139,98,60,Tag0,unknown
1499246933811,0,116,2.548828125E-5,24,14,61,72635,17732,226,774,1977,139,98,60,Tag0,unknown
1499246933811,0,120,2.63671875E-5,24,14,61,72635,17732,226,774,1977,139,98,60,Tag0,unknown
1499246933811,0,-121,-2.6586914062500003E-5,24,14,61,72635,17732,226,774,1977,139,98,60,Tag0,unknown
1499246933811,0,-110,-2.4169921875E-5,24,14,61,72635,17732,226,774,1977,139,98,60,Tag0,unknown
1499246933812,0,-121,-2.6586914062500003E-5,24,14,61,72635,17732,226,774,1977,139,98,60,Tag0,unknown
1499246933812,0,112,2.4609375E-5,24,14,61,72635,17732,226,774,1977,139,98,60,Tag0,unknown
1499246933812,0,100,2.197265625E-5,24,14,61,72635,17732,226,774,1977,139,98,60,Tag0,unknown
1499246933812,0,108,2.3730468750000002E-5,24,14,61,72635,17732,226,774,1977,139,98,60,Tag0,unknown
1499246933812,0,119,2.6147460937500004E-5,24,14,61,72635,17732,226,774,1977,139,98,60,Tag0,unknown
1499246933812,0,112,2.4609375E-5,24,14,61,72635,17732,226,774,1977,139,98,60,Tag0,unknown
1499246933813,0,101,2.2192382812500002E-5,24,14,61,72635,17732,226,774,1977,139,98,60,Tag0,unknown
1499246933813,0,98,2.1533203125E-5,24,14,61,72635,17732,226,774,1977,139,98,60,Tag0,unknown
1499246933813,0,103,2.26318359375E-5,24,14,61,72635,17732,226,774,1977,139,98,60,Tag0,unknown
1499246933813,0,116,2.548828125E-5,24,14,61,72635,17732,226,774,1977,139,98,60,Tag0,unknown
1499246933813,0,-128,-2.8125E-5,24,14,61,72635,17732,226,774,1977,139,98,60,Tag0,unknown
1499246933813,0,-126,-2.7685546875E-5,24,14,61,72635,17732,226,774,1977,139,98,60,Tag0,unknown
1499246933814,0,121,2.6586914062500003E-5,24,14,61,72635,17732,226,774,1977,139,98,60,Tag0,unknown
1499246933814,0,109,2.39501953125E-5,24,14,61,72635,17732,226,774,1977,139,98,60,Tag0,unknown
1499246933814,0,103,2.26318359375E-5,24,14,61,72635,17732,226,774,1977,139,98,60,Tag0,unknown
1499246933814,0,102,2.2412109374999998E-5,24,14,61,72635,17732,226,774,1977,139,98,60,Tag0,unknown
1499246933814,0,99,2.1752929687500003E-5,24,14,61,72635,17732,226,774,1977,139,98,60,Tag0,unknown
1499246933815,0,93,2.04345703125E-5,24,14,61,72635,17732,226,774,1977,139,98,60,Tag0,unknown
1499246933815,0,87,1.91162109375E-5,24,14,61,72635,17732,226,774,1977,139,98,60,Tag0,unknown
1499246933815,0,83,1.82373046875E-5,24,14,61,72635,17732,226,774,1977,139,98,60,Tag0,unknown
1499246933815,0,80,1.7578125E-5,24,14,61,72635,17732,226,774,1977,139,98,60,Tag0,unknown
1499246933815,0,76,1.669921875E-5,24,14,61,72635,17732,226,774,1977,139,98,60,Tag0,unknown
1499246933815,0,85,1.86767578125E-5,24,14,61,72635,17732,226,774,1977,139,98,60,Tag0,unknown
1499246933816,0,88,1.93359375E-5,24,14,61,72635,17732,226,774,1977,139,98,60,Tag0,unknown
1499246933816,0,82,1.8017578124999998E-5,24,14,61,72635,17732,226,774,1977,139,98,60,Tag0,unknown
1499246933816,0,71,1.56005859375E-5,24,14,61,72635,17732,226,774,1977,139,98,60,Tag0,unknown
1499246933816,0,65,1.42822265625E-5,24,14,61,72635,17732,226,774,1977,139,98,60,Tag0,unknown
1499246933816,0,60,1.318359375E-5,24,14,61,72635,17732,226,774,1977,139,98,60,Tag0,unknown
1499246933817,0,60,1.318359375E-5,24,14,61,72635,17732,226,774,1977,139,98,60,Tag0,unknown
1499246933817,0,54,1.1865234375000001E-5,24,14,61,72635,17732,226,774,1977,139,98,60,Tag0,unknown
1499246933817,0,48,1.0546875E-5,24,14,61,72635,17732,226,774,1977,139,98,60,Tag0,unknown
1499246933817,0,51,1.1206054687499999E-5,24,14,61,72635,17732,226,774,1977,139,98,60,Tag0,unknown
1499246933817,0,61,1.34033203125E-5,24,14,61,72635,17732,226,774,1977,139,98,60,Tag0,unknown
1499246933817,0,74,1.6259765625E-5,24,14,61,72635,17732,226,774,1977,139,98,60,Tag0,unknown
1499246933818,0,83,1.82373046875E-5,24,14,61,72635,17732,226,774,1977,139,98,60,Tag0,unknown
1499246933818,0,80,1.7578125E-5,24,14,61,72635,17732,226,774,1977,139,98,60,Tag0,unknown
1499246933818,0,72,1.58203125E-5,24,14,61,72635,17732,226,774,1977,139,98,60,Tag0,unknown
1499246933818,0,74,1.6259765625E-5,24,14,61,72635,17732,226,774,1977,139,98,60,Tag0,unknown
1499246933818,0,81,1.77978515625E-5,24,14,61,72635,17732,226,774,1977,139,98,60,Tag0,unknown
1499246933818,0,72,1.58203125E-5,24,14,61,72635,17732,226,774,1977,139,98,60,Tag0,unknown
1499246933818,0,60,1.318359375E-5,24,14,61,72635,17732,226,774,1977,139,98,60,Tag0,unknown
1499246933819,0,53,1.1645507812500002E-5,24,14,61,72635,17732,226,774,1977,139,98,60,Tag0,unknown
1499246933819,0,51,1.1206054687499999E-5,24,14,61,72635,17732,226,774,1977,139,98,60,Tag0,unknown
1499246933819,0,52,1.142578125E-5,24,14,61,72635,17732,226,774,1977,139,98,60,Tag0,unknown
1499246933819,0,48,1.0546875E-5,24,14,61,72635,17732,226,774,1977,139,98,60,Tag0,unknown
1499246933819,0,38,8.349609375E-6,24,14,61,72635,17732,226,774,1977,139,98,60,Tag0,unknown
1499246933819,0,37,8.1298828125E-6,24,14,61,72635,17732,226,774,1977,139,98,60,Tag0,unknown
1499246933820,0,28,6.15234375E-6,24,14,61,72635,17732,226,774,1977,139,98,60,Tag0,unknown
1499246933820,0,21,4.614257812500001E-6,24,14,61,72635,17732,226,774,1977,139,98,60,Tag0,unknown
1499246933820,0,16,3.515625E-6,24,14,61,72635,17732,226,774,1977,139,98,60,Tag0,unknown
1499246933820,0,17,3.7353515625000003E-6,24,14,61,72635,17732,226,774,1977,139,98,60,Tag0,unknown
1499246933820,0,25,5.4931640625E-6,24,14,61,72635,17732,226,774,1977,139,98,60,Tag0,unknown
1499246933820,0,33,7.2509765625E-6,24,14,61,72635,17732,226,774,1977,139,98,60,Tag0,unknown
1499246933821,0,41,9.008789062499999E-6,24,14,61,72635,17732,226,774,1977,139,98,60,Tag0,unknown
1499246933821,0,48,1.0546875E-5,24,14,61,72635,17732,226,774,1977,139,98,60,Tag0,unknown
1499246933821,0,52,1.142578125E-5,24,14,61,72635,17732,226,774,1977,139,98,60,Tag0,unknown
1499246933821,0,56,1.23046875E-5,24,14,61,72635,17732,226,774,1977,139,98,60,Tag0,unknown
1499246933821,0,52,1.142578125E-5,24,14,61,72635,17732,226,774,1977,139,98,60,Tag0,unknown
1499246933821,0,43,9.448242187500001E-6,24,14,61,72635,17732,226,774,1977,139,98,60,Tag0,unknown
1499246933821,0,43,9.448242187500001E-6,24,14,61,72635,17732,226,774,1977,139,98,60,Tag0,unknown
1499246933822,0,54,1.1865234375000001E-5,24,14,61,72635,17732,226,774,1977,139,98,60,Tag0,unknown
1499246933822,0,57,1.2524414062500001E-5,24,14,61,72635,17732,226,774,1977,139,98,60,Tag0,unknown
1499246933822,0,50,1.0986328125E-5,24,14,61,72635,17732,226,774,1977,139,98,60,Tag0,unknown
1499246933822,0,44,9.66796875E-6,24,14,61,72635,17732,226,774,1977,139,98,60,Tag0,unknown
1499246933822,0,49,1.07666015625E-5,24,14,61,72635,17732,226,774,1977,139,98,60,Tag0,unknown
1499246933822,0,53,1.1645507812500002E-5,24,14,61,72635,17732,226,774,1977,139,98,60,Tag0,unknown
1499246933822,0,54,1.1865234375000001E-5,24,14,61,72635,17732,226,774,1977,139,98,60,Tag0,unknown
1499246933823,0,59,1.29638671875E-5,24,14,61,72635,17732,226,774,1977,139,98,60,Tag0,unknown
1499246933823,0,58,1.2744140625E-5,24,14,61,72635,17732,226,774,1977,139,98,60,Tag0,unknown
1499246933823,0,58,1.2744140625E-5,24,14,61,72635,17732,226,774,1977,139,98,60,Tag0,unknown
1499246933823,0,55,1.20849609375E-5,24,14,61,72635,17732,226,774,1977,139,98,60,Tag0,unknown
1499246933823,0,50,1.0986328125E-5,24,14,61,72635,17732,226,774,1977,139,98,60,Tag0,unknown
1499246933823,0,43,9.448242187500001E-6,24,14,61,72635,17732,226,774,1977,139,98,60,Tag0,unknown
1499246933823,0,39,8.5693359375E-6,24,14,61,72635,17732,226,774,1977,139,98,60,Tag0,unknown
1499246933824,0,44,9.66796875E-6,24,14,61,72635,17732,226,774,1977,139,98,60,Tag0,unknown
1499246933824,0,61,1.34033203125E-5,24,14,61,72635,17732,226,774,1977,139,98,60,Tag0,unknown
1499246933824,0,73,1.6040039062500002E-5,24,14,61,72635,17732,226,774,1977,139,98,60,Tag0,unknown
1499246933824,0,76,1.669921875E-5,24,14,61,72635,17732,226,774,1977,139,98,60,Tag0,unknown
1499246933824,0,70,1.5380859375E-5,24,14,61,72635,17732,226,774,1977,139,98,60,Tag0,unknown
1499246933824,0,57,1.2524414062500001E-5,24,14,61,72635,17732,226,774,1977,139,98,60,Tag0,unknown
1499246933825,0,58,1.2744140625E-5,24,14,61,72635,17732,226,774,1977,139,98,60,Tag0,unknown
1499246933825,0,72,1.58203125E-5,24,14,61,72635,17732,226,774,1977,139,98,60,Tag0,unknown
1499246933825,0,73,1.6040039062500002E-5,24,14,61,72635,17732,226,774,1977,139,98,60,Tag0,unknown
1499246933825,0,68,1.4941406250000001E-5,24,14,61,72635,17732,226,774,1977,139,98,60,Tag0,unknown
1499246933825,0,68,1.4941406250000001E-5,24,14,61,72635,17732,226,774,1977,139,98,60,Tag0,unknown
1499246933825,0,73,1.6040039062500002E-5,24,14,61,72635,17732,226,774,1977,139,98,60,Tag0,unknown
1499246933825,0,69,1.51611328125E-5,24,14,61,72635,17732,226,774,1977,139,98,60,Tag0,unknown
1499246933826,0,64,1.40625E-5,24,14,61,72635,17732,226,774,1977,139,98,60,Tag0,unknown
1499246933826,0,64,1.40625E-5,24,14,61,72635,17732,226,774,1977,139,98,60,Tag0,unknown
1499246933826,0,64,1.40625E-5,24,14,61,72635,17732,226,774,1977,139,98,60,Tag0,unknown
1499246933826,0,59,1.29638671875E-5,24,14,61,72635,17732,226,774,1977,139,98,60,Tag0,unknown
1499246933826,0,71,1.56005859375E-5,24,14,61,72635,17732,226,774,1977,139,98,60,Tag0,unknown
1499246933826,0,76,1.669921875E-5,24,14,61,72635,17732,226,774,1977,139,98,60,Tag0,unknown
1499246933827,0,59,1.29638671875E-5,24,14,61,72635,17732,226,774,1977,139,98,60,Tag0,unknown
1499246933827,0,42,9.228515625000002E-6,24,14,61,72635,17732,226,774,1977,139,98,60,Tag0,unknown
1499246933827,0,41,9.008789062499999E-6,24,14,61,72635,17732,226,774,1977,139,98,60,Tag0,unknown
1499246933827,0,42,9.228515625000002E-6,24,14,61,72635,17732,226,774,1977,139,98,60,Tag0,unknown
1499246933827,0,34,7.4707031250000005E-6,24,14,61,72635,17732,226,774,1977,139,98,60,Tag0,unknown
1499246933827,0,26,5.712890625E-6,24,14,61,72635,17732,226,774,1977,139,98,60,Tag0,unknown
1499246933827,0,33,7.2509765625E-6,24,14,61,72635,17732,226,774,1977,139,98,60,Tag0,unknown
1499246933828,0,40,8.7890625E-6,24,14,61,72635,17732,226,774,1977,139,98,60,Tag0,unknown
1499246933828,0,38,8.349609375E-6,24,14,61,72635,17732,226,774,1977,139,98,60,Tag0,unknown
1499246933828,0,37,8.1298828125E-6,24,14,61,72635,17732,226,774,1977,139,98,60,Tag0,unknown
1499246933828,0,44,9.66796875E-6,24,14,61,72635,17732,226,774,1977,139,98,60,Tag0,unknown
1499246933828,0,48,1.0546875E-5,24,14,61,72635,17732,226,774,1977,139,98,60,Tag0,unknown
1499246933828,0,32,7.03125E-6,24,14,61,72635,17732,226,774,1977,139,98,60,Tag0,unknown
1499246933828,0,11,2.4169921875E-6,24,14,61,72635,17732,226,774,1977,139,98,60,Tag0,unknown
1499246933829,0,6,1.318359375E-6,24,14,61,72635,17732,226,774,1977,139,98,60,Tag0,unknown
1499246933829,0,17,3.7353515625000003E-6,24,14,61,72635,17732,226,774,1977,139,98,60,Tag0,unknown
1499246933829,0,26,5.712890625E-6,24,14,61,72635,17732,226,774,1977,139,98,60,Tag0,unknown
1499246933829,0,32,7.03125E-6,24,14,61,72635,17732,226,774,1977,139,98,60,Tag0,unknown
1499246933829,0,40,8.7890625E-6,24,14,61,72635,17732,226,774,1977,139,98,60,Tag0,unknown
1499246933829,0,48,1.0546875E-5,24,14,61,72635,17732,226,774,1977,139,98,60,Tag0,unknown
1499246933830,0,52,1.142578125E-5,24,14,61,72635,17732,226,774,1977,139,98,60,Tag0,unknown
1499246933830,0,58,1.2744140625E-5,24,14,61,72635,17732,226,774,1977,139,98,60,Tag0,unknown
1499246933830,0,71,1.56005859375E-5,24,14,61,72635,17732,226,774,1977,139,98,60,Tag0,unknown
1499246933830,0,85,1.86767578125E-5,24,14,61,72635,17732,226,774,1977,139,98,60,Tag0,unknown
1499246933830,0,90,1.9775390625E-5,24,14,61,72635,17732,226,774,1977,139,98,60,Tag0,unknown
1499246933830,0,82,1.8017578124999998E-5,24,14,61,72635,17732,226,774,1977,139,98,60,Tag0,unknown
1499246933830,0,68,1.4941406250000001E-5,24,14,61,72635,17732,226,774,1977,139,98,60,Tag0,unknown
1499246933831,0,64,1.40625E-5,24,14,61,72635,17732,226,774,1977,139,98,60,Tag0,unknown
1499246933831,0,58,1.2744140625E-5,24,14,61,72635,17732,226,774,1977,139,98,60,Tag0,unknown
1499246933831,0,57,1.2524414062500001E-5,24,14,61,72635,17732,226,774,1977,139,98,60,Tag0,unknown
1499246933831,0,58,1.2744140625E-5,24,14,61,72635,17732,226,774,1977,139,98,60,Tag0,unknown
1499246933831,0,45,9.8876953125E-6,24,14,61,72635,17732,226,774,1977,139,98,60,Tag0,unknown
1499246933831,0,28,6.15234375E-6,24,14,61,72635,17732,226,774,1977,139,98,60,Tag0,unknown
1499246933831,0,24,5.2734375E-6,24,14,61,72635,17732,226,774,1977,139,98,60,Tag0,unknown
1499246933832,0,32,7.03125E-6,24,14,61,72635,17732,226,774,1977,139,98,60,Tag0,unknown
1499246933832,0,36,7.91015625E-6,24,14,61,72635,17732,226,774,1977,139,98,60,Tag0,unknown
1499246933832,0,39,8.5693359375E-6,24,14,61,72635,17732,226,774,1977,139,98,60,Tag0,unknown
1499246933832,0,44,9.66796875E-6,24,14,61,72635,17732,226,774,1977,139,98,60,Tag0,unknown
1499246933832,0,51,1.1206054687499999E-5,24,14,61,72635,17732,226,774,1977,139,98,60,Tag0,unknown
1499246933832,0,58,1.2744140625E-5,24,14,61,72635,17732,226,774,1977,139,98,60,Tag0,unknown
1499246933832,0,60,1.318359375E-5,24,14,61,72635,17732,226,774,1977,139,98,60,Tag0,unknown
1499246933833,0,58,1.2744140625E-5,24,14,61,72635,17732,226,774,1977,139,98,60,Tag0,unknown
1499246933833,0,59,1.29638671875E-5,24,14,61,72635,17732,226,774,1977,139,98,60,Tag0,unknown
1499246933833,0,65,1.42822265625E-5,24,14,61,72635,17732,226,774,1977,139,98,60,Tag0,unknown
1499246933833,0,65,1.42822265625E-5,24,14,61,72635,17732,226,774,1977,139,98,60,Tag0,unknown
1499246933833,0,68,1.4941406250000001E-5,24,14,61,72635,17732,226,774,1977,139,98,60,Tag0,unknown
1499246933834,0,85,1.86767578125E-5,24,14,61,72635,17732,226,774,1977,139,98,60,Tag0,unknown
1499246933834,0,98,2.1533203125E-5,24,14,61,72635,17732,226,774,1977,139,98,60,Tag0,unknown
1499246933834,0,96,2.109375E-5,24,14,61,72635,17732,226,774,1977,139,98,60,Tag0,unknown
1499246933834,0,85,1.86767578125E-5,24,14,61,72635,17732,226,774,1977,139,98,60,Tag0,unknown
1499246933834,0,75,1.64794921875E-5,24,14,61,72635,17732,226,774,1977,139,98,60,Tag0,unknown
1499246933834,0,80,1.7578125E-5,24,14,61,72635,17732,226,774,1977,139,98,60,Tag0,unknown
1499246933834,0,82,1.8017578124999998E-5,24,14,61,72635,17732,226,774,1977,139,98,60,Tag0,unknown
1499246933835,0,76,1.669921875E-5,24,14,61,72635,17732,226,774,1977,139,98,60,Tag0,unknown
1499246933835,0,82,1.8017578124999998E-5,24,14,61,72635,17732,226,774,1977,139,98,60,Tag0,unknown
1499246933835,0,85,1.86767578125E-5,24,14,61,72635,17732,226,774,1977,139,98,60,Tag0,unknown
1499246933835,0,77,1.69189453125E-5,24,14,61,72635,17732,226,774,1977,139,98,60,Tag0,unknown
1499246933835,0,53,1.1645507812500002E-5,24,14,61,72635,17732,226,774,1977,139,98,60,Tag0,unknown
1499246933835,0,38,8.349609375E-6,24,14,61,72635,17732,226,774,1977,139,98,60,Tag0,unknown
1499246933836,0,52,1.142578125E-5,24,14,61,72635,17732,226,774,1977,139,98,60,Tag0,unknown
1499246933836,0,67,1.4721679687500002E-5,24,14,61,72635,17732,226,774,1977,139,98,60,Tag0,unknown
1499246933836,0,56,1.23046875E-5,24,14,61,72635,17732,226,774,1977,139,98,60,Tag0,unknown
1499246933836,0,40,8.7890625E-6,24,14,61,72635,17732,226,774,1977,139,98,60,Tag0,unknown
1499246933836,0,40,8.7890625E-6,24,14,61,72635,17732,226,774,1977,139,98,60,Tag0,unknown
1499246933836,0,44,9.66796875E-6,24,14,61,72635,17732,226,774,1977,139,98,60,Tag0,unknown
1499246933836,0,43,9.448242187500001E-6,24,14,61,72635,17732,226,774,1977,139,98,60,Tag0,unknown
1499246933837,0,40,8.7890625E-6,24,14,61,72635,17732,226,774,1977,139,98,60,Tag0,unknown
1499246933837,0,37,8.1298828125E-6,24,14,61,72635,17732,226,774,1977,139,98,60,Tag0,unknown
1499246933837,0,44,9.66796875E-6,24,14,61,72635,17732,226,774,1977,139,98,60,Tag0,unknown
1499246933837,0,61,1.34033203125E-5,24,14,61,72635,17732,226,774,1977,139,98,60,Tag0,unknown
1499246933837,0,75,1.64794921875E-5,24,14,61,72635,17732,226,774,1977,139,98,60,Tag0,unknown
1499246933837,0,82,1.8017578124999998E-5,24,14,61,72635,17732,226,774,1977,139,98,60,Tag0,unknown
1499246933838,0,73,1.6040039062500002E-5,24,14,61,72635,17732,226,774,1977,139,98,60,Tag0,unknown
1499246933838,0,64,1.40625E-5,24,14,61,72635,17732,226,774,1977,139,98,60,Tag0,unknown
1499246933838,0,60,1.318359375E-5,24,14,61,72635,17732,226,774,1977,139,98,60,Tag0,unknown
1499246933838,0,65,1.42822265625E-5,24,14,61,72635,17732,226,774,1977,139,98,60,Tag0,unknown
1499246933838,0,60,1.318359375E-5,24,14,61,72635,17732,226,774,1977,139,98,60,Tag0,unknown
1499246933838,0,60,1.318359375E-5,24,14,61,72635,17732,226,774,1977,139,98,60,Tag0,unknown
1499246933838,0,69,1.51611328125E-5,24,14,61,72635,17732,226,774,1977,139,98,60,Tag0,unknown
1499246933839,0,72,1.58203125E-5,24,14,61,72635,17732,226,774,1977,139,98,60,Tag0,unknown
1499246933839,0,74,1.6259765625E-5,24,14,61,72635,17732,226,774,1977,139,98,60,Tag0,unknown
1499246933839,0,81,1.77978515625E-5,24,14,61,72635,17732,226,774,1977,139,98,60,Tag0,unknown
1499246933839,0,81,1.77978515625E-5,24,14,61,72635,17732,226,774,1977,139,98,60,Tag0,unknown
1499246933839,0,83,1.82373046875E-5,24,14,61,72635,17732,226,774,1977,139,98,60,Tag0,unknown
1499246933839,0,84,1.8457031250000004E-5,24,14,61,72635,17732,226,774,1977,139,98,60,Tag0,unknown
1499246933839,0,87,1.91162109375E-5,24,14,61,72635,17732,226,774,1977,139,98,60,Tag0,unknown
1499246933840,0,86,1.8896484375000003E-5,24,14,61,72635,17732,226,774,1977,139,98,60,Tag0,unknown
1499246933840,0,87,1.91162109375E-5,24,14,61,72635,17732,226,774,1977,139,98,60,Tag0,unknown
1499246933840,0,97,2.13134765625E-5,24,14,61,72635,17732,226,774,1977,139,98,60,Tag0,unknown
1499246933840,0,108,2.3730468750000002E-5,24,14,61,72635,17732,226,774,1977,139,98,60,Tag0,unknown
1499246933840,0,118,2.5927734375E-5,24,14,61,72635,17732,226,774,1977,139,98,60,Tag0,unknown
1499246933840,0,123,2.70263671875E-5,24,14,61,72635,17732,226,774,1977,139,98,60,Tag0,unknown
1499246933841,0,120,2.63671875E-5,24,14,61,72635,17732,226,774,1977,139,98,60,Tag0,unknown
1499246933841,0,114,2.5048828125000003E-5,24,14,61,72635,17732,226,774,1977,139,98,60,Tag0,unknown
1499246933841,0,108,2.3730468750000002E-5,24,14,61,72635,17732,226,774,1977,139,98,60,Tag0,unknown
1499246933841,0,107,2.35107421875E-5,24,14,61,72635,17732,226,774,1977,139,98,60,Tag0,unknown
1499246933841,0,104,2.28515625E-5,24,14,61,72635,17732,226,774,1977,139,98,60,Tag0,unknown
1499246933841,0,103,2.26318359375E-5,24,14,61,72635,17732,226,774,1977,139,98,60,Tag0,unknown
1499246933841,0,100,2.197265625E-5,24,14,61,72635,17732,226,774,1977,139,98,60,Tag0,unknown
1499246933842,0,92,2.021484375E-5,24,14,61,72635,17732,226,774,1977,139,98,60,Tag0,unknown
1499246933842,0,89,1.95556640625E-5,24,14,61,72635,17732,226,774,1977,139,98,60,Tag0,unknown
1499246933842,0,85,1.86767578125E-5,24,14,61,72635,17732,226,774,1977,139,98,60,Tag0,unknown
1499246933842,0,81,1.77978515625E-5,24,14,61,72635,17732,226,774,1977,139,98,60,Tag0,unknown
1499246933842,0,84,1.8457031250000004E-5,24,14,61,72635,17732,226,774,1977,139,98,60,Tag0,unknown
1499246933842,0,89,1.95556640625E-5,24,14,61,72635,17732,226,774,1977,139,98,60,Tag0,unknown
1499246933842,0,87,1.91162109375E-5,24,14,61,72635,17732,226,774,1977,139,98,60,Tag0,unknown
1499246933843,0,81,1.77978515625E-5,24,14,61,72635,17732,226,774,1977,139,98,60,Tag0,unknown
1499246933843,0,76,1.669921875E-5,24,14,61,72635,17732,226,774,1977,139,98,60,Tag0,unknown
1499246933843,0,74,1.6259765625E-5,24,14,61,72635,17732,226,774,1977,139,98,60,Tag0,unknown
1499246933843,0,81,1.77978515625E-5,24,14,61,72635,17732,226,774,1977,139,98,60,Tag0,unknown
1499246933843,0,81,1.77978515625E-5,24,14,61,72635,17732,226,774,1977,139,98,60,Tag0,unknown
1499246933843,0,83,1.82373046875E-5,24,14,61,72635,17732,226,774,1977,139,98,60,Tag0,unknown
1499246933844,0,87,1.91162109375E-5,24,14,61,72635,17732,226,774,1977,139,98,60,Tag0,unknown
1499246933844,0,87,1.91162109375E-5,24,14,61,72635,17732,226,774,1977,139,98,60,Tag0,unknown
1499246933844,0,89,1.95556640625E-5,24,14,61,72635,17732,226,774,1977,139,98,60,Tag0,unknown
1499246933844,0,90,1.9775390625E-5,24,14,61,72635,17732,226,774,1977,139,98,60,Tag0,unknown
1499246933844,0,83,1.82373046875E-5,24,14,61,72635,17732,226,774,1977,139,98,60,Tag0,unknown
1499246933844,0,74,1.6259765625E-5,24,14,61,72635,17732,226,774,1977,139,98,60,Tag0,unknown
1499246933844,0,71,1.56005859375E-5,24,14,61,72635,17732,226,774,1977,139,98,60,Tag0,unknown
1499246933845,0,81,1.77978515625E-5,24,14,61,72635,17732,226,774,1977,139,98,60,Tag0,unknown
1499246933845,0,92,2.021484375E-5,24,14,61,72635,17732,226,774,1977,139,98,60,Tag0,unknown
1499246933845,0,97,2.13134765625E-5,24,14,61,72635,17732,226,774,1977,139,98,60,Tag0,unknown
1499246933845,0,83,1.82373046875E-5,24,14,61,72635,17732,226,774,1977,139,98,60,Tag0,unknown
1499246933845,0,66,1.4501953125E-5,24,14,61,72635,17732,226,774,1977,139,98,60,Tag0,unknown
1499246933846,0,57,1.2524414062500001E-5,24,14,61,72635,17732,226,774,1977,139,98,60,Tag0,unknown
1499246933846,0,65,1.42822265625E-5,24,14,61,72635,17732,226,774,1977,139,98,60,Tag0,unknown
1499246933846,0,73,1.6040039062500002E-5,24,14,61,72635,17732,226,774,1977,139,98,60,Tag0,unknown
1499246933846,0,73,1.6040039062500002E-5,24,14,61,72635,17732,226,774,1977,139,98,60,Tag0,unknown
1499246933847,0,70,1.5380859375E-5,24,14,61,72635,17732,226,774,1977,139,98,60,Tag0,unknown
1499246933847,0,68,1.4941406250000001E-5,24,14,61,72635,17732,226,774,1977,139,98,60,Tag0,unknown
1499246933847,0,52,1.142578125E-5,24,14,61,72635,17732,226,774,1977,139,98,60,Tag0,unknown
1499246933847,0,39,8.5693359375E-6,24,14,61,72635,17732,226,774,1977,139,98,60,Tag0,unknown
1499246933847,0,51,1.1206054687499999E-5,24,14,61,72635,17732,226,774,1977,139,98,60,Tag0,unknown
1499246933848,0,68,1.4941406250000001E-5,24,14,61,72635,17732,226,774,1977,139,98,60,Tag0,unknown
1499246933848,0,70,1.5380859375E-5,24,14,61,72635,17732,226,774,1977,139,98,60,Tag0,unknown
1499246933848,0,61,1.34033203125E-5,24,14,61,72635,17732,226,774,1977,139,98,60,Tag0,unknown
1499246933848,0,56,1.23046875E-5,24,14,61,72635,17732,226,774,1977,139,98,60,Tag0,unknown
1499246933848,0,57,1.2524414062500001E-5,24,14,61,72635,17732,226,774,1977,139,98,60,Tag0,unknown
1499246933848,0,59,1.29638671875E-5,24,14,61,72635,17732,226,774,1977,139,98,60,Tag0,unknown
1499246933848,0,64,1.40625E-5,24,14,61,72635,17732,226,774,1977,139,98,60,Tag0,unknown
1499246933849,0,60,1.318359375E-5,24,14,61,72635,17732,226,774,1977,139,98,60,Tag0,unknown
1499246933849,0,60,1.318359375E-5,24,14,61,72635,17732,226,774,1977,139,98,60,Tag0,unknown
1499246933849,0,67,1.4721679687500002E-5,24,14,61,72635,17732,226,774,1977,139,98,60,Tag0,unknown
1499246933849,0,71,1.56005859375E-5,24,14,61,72635,17732,226,774,1977,139,98,60,Tag0,unknown
1499246933849,0,72,1.58203125E-5,24,14,61,72635,17732,226,774,1977,139,98,60,Tag0,unknown
1499246933849,0,81,1.77978515625E-5,24,14,61,72635,17732,226,774,1977,139,98,60,Tag0,unknown
1499246933849,0,88,1.93359375E-5,24,14,61,72635,17732,226,774,1977,139,98,60,Tag0,unknown
1499246933850,0,91,1.99951171875E-5,24,14,61,72635,17732,226,774,1977,139,98,60,Tag0,unknown
1499246933850,0,89,1.95556640625E-5,24,14,61,72635,17732,226,774,1977,139,98,60,Tag0,unknown
1499246933850,0,86,1.8896484375000003E-5,24,14,61,72635,17732,226,774,1977,139,98,60,Tag0,unknown
1499246933850,0,85,1.86767578125E-5,24,14,61,72635,17732,226,774,1977,139,98,60,Tag0,unknown
1499246933850,0,82,1.8017578124999998E-5,24,14,61,72635,17732,226,774,1977,139,98,60,Tag0,unknown
1499246933850,0,71,1.56005859375E-5,24,14,61,72635,17732,226,774,1977,139,98,60,Tag0,unknown
1499246933850,0,60,1.318359375E-5,24,14,61,72635,17732,226,774,1977,139,98,60,Tag0,unknown
1499246933851,0,54,1.1865234375000001E-5,24,14,61,72635,17732,226,774,1977,139,98,60,Tag0,unknown
1499246933851,0,52,1.142578125E-5,24,14,61,72635,17732,226,774,1977,139,98,60,Tag0,unknown
1499246933851,0,58,1.2744140625E-5,24,14,61,72635,17732,226,774,1977,139,98,60,Tag0,unknown
1499246933851,0,67,1.4721679687500002E-5,24,14,61,72635,17732,226,774,1977,139,98,60,Tag0,unknown
1499246933851,0,67,1.4721679687500002E-5,24,14,61,72635,17732,226,774,1977,139,98,60,Tag0,unknown
1499246933851,0,72,1.58203125E-5,24,14,61,72635,17732,226,774,1977,139,98,60,Tag0,unknown
1499246933852,0,77,1.69189453125E-5,24,14,61,72635,17732,226,774,1977,139,98,60,Tag0,unknown
1499246933852,0,76,1.669921875E-5,24,14,61,72635,17732,226,774,1977,139,98,60,Tag0,unknown
1499246933852,0,71,1.56005859375E-5,24,14,61,72635,17732,226,774,1977,139,98,60,Tag0,unknown
1499246933852,0,67,1.4721679687500002E-5,24,14,61,72635,17732,226,774,1977,139,98,60,Tag0,unknown
1499246933852,0,72,1.58203125E-5,24,14,61,72635,17732,226,774,1977,139,98,60,Tag0,unknown
1499246933852,0,85,1.86767578125E-5,24,14,61,72635,17732,226,774,1977,139,98,60,Tag0,unknown
1499246933852,0,88,1.93359375E-5,24,14,61,72635,17732,226,774,1977,139,98,60,Tag0,unknown
1499246933853,0,77,1.69189453125E-5,24,14,61,72635,17732,226,774,1977,139,98,60,Tag0,unknown
1499246933853,0,69,1.51611328125E-5,24,14,61,72635,17732,226,774,1977,139,98,60,Tag0,unknown
1499246933853,0,67,1.4721679687500002E-5,24,14,61,72635,17732,226,774,1977,139,98,60,Tag0,unknown
1499246933853,0,69,1.51611328125E-5,24,14,61,72635,17732,226,774,1977,139,98,60,Tag0,unknown
1499246933853,0,68,1.4941406250000001E-5,24,14,61,72635,17732,226,774,1977,139,98,60,Tag0,unknown
1499246933853,0,58,1.2744140625E-5,24,14,61,72635,17732,226,774,1977,139,98,60,Tag0,unknown
1499246933854,0,57,1.2524414062500001E-5,24,14,61,72635,17732,226,774,1977,139,98,60,Tag0,unknown
1499246933855,0,51,1.1206054687499999E-5,24,14,61,72635,17732,226,774,1977,139,98,60,Tag0,unknown
1499246933855,0,43,9.448242187500001E-6,24,14,61,72635,17732,226,774,1977,139,98,60,Tag0,unknown
1499246933855,0,52,1.142578125E-5,24,14,61,72635,17732,226,774,1977,139,98,60,Tag0,unknown
1499246933855,0,56,1.23046875E-5,24,14,61,72635,17732,226,774,1977,139,98,60,Tag0,unknown
1499246933856,0,59,1.29638671875E-5,24,14,61,72635,17732,226,774,1977,139,98,60,Tag0,unknown
1499246933856,0,72,1.58203125E-5,24,14,61,72635,17732,226,774,1977,139,98,60,Tag0,unknown
1499246933856,0,85,1.86767578125E-5,24,14,61,72635,17732,226,774,1977,139,98,60,Tag0,unknown
1499246933856,0,97,2.13134765625E-5,24,14,61,72635,17732,226,774,1977,139,98,60,Tag0,unknown
1499246933856,0,100,2.197265625E-5,24,14,61,72635,17732,226,774,1977,139,98,60,Tag0,unknown
1499246933857,0,89,1.95556640625E-5,24,14,61,72635,17732,226,774,1977,139,98,60,Tag0,unknown
1499246933857,0,72,1.58203125E-5,24,14,61,72635,17732,226,774,1977,139,98,60,Tag0,unknown
1499246933857,0,65,1.42822265625E-5,24,14,61,72635,17732,226,774,1977,139,98,60,Tag0,unknown
1499246933857,0,74,1.6259765625E-5,24,14,61,72635,17732,226,774,1977,139,98,60,Tag0,unknown
1499246933857,0,85,1.86767578125E-5,24,14,61,72635,17732,226,774,1977,139,98,60,Tag0,unknown
1499246933857,0,83,1.82373046875E-5,24,14,61,72635,17732,226,774,1977,139,98,60,Tag0,unknown
1499246933858,0,73,1.6040039062500002E-5,24,14,61,72635,17732,226,774,1977,139,98,60,Tag0,unknown
1499246933858,0,71,1.56005859375E-5,24,14,61,72635,17732,226,774,1977,139,98,60,Tag0,unknown
1499246933858,0,64,1.40625E-5,24,14,61,72635,17732,226,774,1977,139,98,60,Tag0,unknown
1499246933858,0,55,1.20849609375E-5,24,14,61,72635,17732,226,774,1977,139,98,60,Tag0,unknown
1499246933859,0,49,1.07666015625E-5,24,14,61,72635,17732,226,774,1977,139,98,60,Tag0,unknown
1499246933859,0,38,8.349609375E-6,24,14,61,72635,17732,226,774,1977,139,98,60,Tag0,unknown
1499246933859,0,29,6.3720703125E-6,24,14,61,72635,17732,226,774,1977,139,98,60,Tag0,unknown
1499246933859,0,41,9.008789062499999E-6,24,14,61,72635,17732,226,774,1977,139,98,60,Tag0,unknown
1499246933859,0,54,1.1865234375000001E-5,24,14,61,72635,17732,226,774,1977,139,98,60,Tag0,unknown
1499246933859,0,48,1.0546875E-5,24,14,61,72635,17732,226,774,1977,139,98,60,Tag0,unknown
1499246933860,0,33,7.2509765625E-6,24,14,61,72635,17732,226,774,1977,139,98,60,Tag0,unknown
1499246933860,0,25,5.4931640625E-6,24,14,61,72635,17732,226,774,1977,139,98,60,Tag0,unknown
1499246933860,0,25,5.4931640625E-6,24,14,61,72635,17732,226,774,1977,139,98,60,Tag0,unknown
1499246933860,0,34,7.4707031250000005E-6,24,14,61,72635,17732,226,774,1977,139,98,60,Tag0,unknown
1499246933860,0,37,8.1298828125E-6,24,14,61,72635,17732,226,774,1977,139,98,60,Tag0,unknown
1499246933860,0,26,5.712890625E-6,24,14,61,72635,17732,226,774,1977,139,98,60,Tag0,unknown
1499246933861,0,22,4.833984375E-6,24,14,61,72635,17732,226,774,1977,139,98,60,Tag0,unknown
1499246933861,0,24,5.2734375E-6,24,14,61,72635,17732,226,774,1977,139,98,60,Tag0,unknown
1499246933861,0,29,6.3720703125E-6,24,14,61,72635,17732,226,774,1977,139,98,60,Tag0,unknown
1499246933861,0,34,7.4707031250000005E-6,24,14,61,72635,17732,226,774,1977,139,98,60,Tag0,unknown
1499246933861,0,35,7.6904296875E-6,24,14,61,72635,17732,226,774,1977,139,98,60,Tag0,unknown
1499246933862,0,35,7.6904296875E-6,24,14,61,72635,17732,226,774,1977,139,98,60,Tag0,unknown
1499246933862,0,38,8.349609375E-6,24,14,61,72635,17732,226,774,1977,139,98,60,Tag0,unknown
1499246933862,0,43,9.448242187500001E-6,24,14,61,72635,17732,226,774,1977,139,98,60,Tag0,unknown
1499246933862,0,53,1.1645507812500002E-5,24,14,61,72635,17732,226,774,1977,139,98,60,Tag0,unknown
1499246933862,0,54,1.1865234375000001E-5,24,14,61,72635,17732,226,774,1977,139,98,60,Tag0,unknown
1499246933862,0,44,9.66796875E-6,24,14,61,72635,17732,226,774,1977,139,98,60,Tag0,unknown
1499246933863,0,35,7.6904296875E-6,24,14,61,72635,17732,226,774,1977,139,98,60,Tag0,unknown
1499246933863,0,42,9.228515625000002E-6,24,14,61,72635,17732,226,774,1977,139,98,60,Tag0,unknown
1499246933863,0,67,1.4721679687500002E-5,24,14,61,72635,17732,226,774,1977,139,98,60,Tag0,unknown
1499246933863,0,76,1.669921875E-5,24,14,61,72635,17732,226,774,1977,139,98,60,Tag0,unknown
1499246933864,0,57,1.2524414062500001E-5,24,14,61,72635,17732,226,774,1977,139,98,60,Tag0,unknown
1499246933864,0,35,7.6904296875E-6,24,14,61,72635,17732,226,774,1977,139,98,60,Tag0,unknown
1499246933864,0,34,7.4707031250000005E-6,24,14,61,72635,17732,226,774,1977,139,98,60,Tag0,unknown
1499246933864,0,42,9.228515625000002E-6,24,14,61,72635,17732,226,774,1977,139,98,60,Tag0,unknown
1499246933864,0,44,9.66796875E-6,24,14,61,72635,17732,226,774,1977,139,98,60,Tag0,unknown
1499246933864,0,48,1.0546875E-5,24,14,61,72635,17732,226,774,1977,139,98,60,Tag0,unknown
1499246933865,0,42,9.228515625000002E-6,24,14,61,72635,17732,226,774,1977,139,98,60,Tag0,unknown
1499246933865,0,41,9.008789062499999E-6,24,14,61,72635,17732,226,774,1977,139,98,60,Tag0,unknown
1499246933865,0,39,8.5693359375E-6,24,14,61,72635,17732,226,774,1977,139,98,60,Tag0,unknown
1499246933865,0,36,7.91015625E-6,24,14,61,72635,17732,226,774,1977,139,98,60,Tag0,unknown
1499246933865,0,42,9.228515625000002E-6,24,14,61,72635,17732,226,774,1977,139,98,60,Tag0,unknown
1499246933866,0,54,1.1865234375000001E-5,24,14,61,72635,17732,226,774,1977,139,98,60,Tag0,unknown
1499246933866,0,51,1.1206054687499999E-5,24,14,61,72635,17732,226,774,1977,139,98,60,Tag0,unknown
1499246933866,0,40,8.7890625E-6,24,14,61,72635,17732,226,774,1977,139,98,60,Tag0,unknown
1499246933866,0,38,8.349609375E-6,24,14,61,72635,17732,226,774,1977,139,98,60,Tag0,unknown
1499246933866,0,41,9.008789062499999E-6,24,14,61,72635,17732,226,774,1977,139,98,60,Tag0,unknown
1499246933867,0,41,9.008789062499999E-6,24,14,61,72635,17732,226,774,1977,139,98,60,Tag0,unknown
1499246933867,0,32,7.03125E-6,24,14,61,72635,17732,226,774,1977,139,98,60,Tag0,unknown
1499246933870,0,17,3.7353515625000003E-6,24,14,61,72635,17732,226,774,1977,139,98,60,Tag0,unknown
1499246933871,0,7,1.5380859375E-6,24,14,61,72635,17732,226,774,1977,139,98,60,Tag0,unknown
1499246933871,0,16,3.515625E-6,24,14,61,72635,17732,226,774,1977,139,98,60,Tag0,unknown
1499246933871,0,27,5.9326171875000005E-6,24,14,61,72635,17732,226,774,1977,139,98,60,Tag0,unknown
1499246933872,0,38,8.349609375E-6,24,14,61,72635,17732,226,774,1977,139,98,60,Tag0,unknown
1499246933872,0,34,7.4707031250000005E-6,24,14,61,72635,17732,226,774,1977,139,98,60,Tag0,unknown
1499246933872,0,24,5.2734375E-6,24,14,61,72635,17732,226,774,1977,139,98,60,Tag0,unknown
1499246933872,0,21,4.614257812500001E-6,24,14,61,72635,17732,226,774,1977,139,98,60,Tag0,unknown
1499246933872,0,13,2.8564453125E-6,24,14,61,72635,17732,226,774,1977,139,98,60,Tag0,unknown
1499246933873,0,8,1.7578125E-6,24,14,61,72635,17732,226,774,1977,139,98,60,Tag0,unknown
1499246933873,0,8,1.7578125E-6,24,14,61,72635,17732,226,774,1977,139,98,60,Tag0,unknown
1499246933873,0,6,1.318359375E-6,24,14,61,72635,17732,226,774,1977,139,98,60,Tag0,unknown
1499246933873,0,5,1.0986328125E-6,24,14,61,72635,17732,226,774,1977,139,98,60,Tag0,unknown
1499246933873,0,6,1.318359375E-6,24,14,61,72635,17732,226,774,1977,139,98,60,Tag0,unknown
1499246933874,0,7,1.5380859375E-6,24,14,61,72635,17732,226,774,1977,139,98,60,Tag0,unknown
1499246933875,0,16,3.515625E-6,24,14,61,72635,17732,226,774,1977,139,98,60,Tag0,unknown
1499246933875,0,27,5.9326171875000005E-6,24,14,61,72635,17732,226,774,1977,139,98,60,Tag0,unknown
1499246933875,0,43,9.448242187500001E-6,24,14,61,72635,17732,226,774,1977,139,98,60,Tag0,unknown
1499246933875,0,56,1.23046875E-5,24,14,61,72635,17732,226,774,1977,139,98,60,Tag0,unknown
1499246933875,0,54,1.1865234375000001E-5,24,14,61,72635,17732,226,774,1977,139,98,60,Tag0,unknown
1499246933876,0,50,1.0986328125E-5,24,14,61,72635,17732,226,774,1977,139,98,60,Tag0,unknown
1499246933876,0,51,1.1206054687499999E-5,24,14,61,72635,17732,226,774,1977,139,98,60,Tag0,unknown
1499246933876,0,57,1.2524414062500001E-5,24,14,61,72635,17732,226,774,1977,139,98,60,Tag0,unknown
1499246933876,0,70,1.5380859375E-5,24,14,61,72635,17732,226,774,1977,139,98,60,Tag0,unknown
1499246933876,0,73,1.6040039062500002E-5,24,14,61,72635,17732,226,774,1977,139,98,60,Tag0,unknown
1499246933876,0,66,1.4501953125E-5,24,14,61,72635,17732,226,774,1977,139,98,60,Tag0,unknown
1499246933877,0,69,1.51611328125E-5,24,14,61,72635,17732,226,774,1977,139,98,60,Tag0,unknown
1499246933877,0,71,1.56005859375E-5,24,14,61,72635,17732,226,774,1977,139,98,60,Tag0,unknown
1499246933877,0,67,1.4721679687500002E-5,24,14,61,72635,17732,226,774,1977,139,98,60,Tag0,unknown
1499246933877,0,73,1.6040039062500002E-5,24,14,61,72635,17732,226,774,1977,139,98,60,Tag0,unknown
1499246933878,0,92,2.021484375E-5,24,14,61,72635,17732,226,774,1977,139,98,60,Tag0,unknown
1499246933878,0,100,2.197265625E-5,24,14,61,72635,17732,226,774,1977,139,98,60,Tag0,unknown
1499246933878,0,88,1.93359375E-5,24,14,61,72635,17732,226,774,1977,139,98,60,Tag0,unknown
1499246933878,0,66,1.4501953125E-5,24,14,61,72635,17732,226,774,1977,139,98,60,Tag0,unknown
1499246933878,0,51,1.1206054687499999E-5,24,14,61,72635,17732,226,774,1977,139,98,60,Tag0,unknown
1499246933879,0,56,1.23046875E-5,24,14,61,72635,17732,226,774,1977,139,98,60,Tag0,unknown
1499246933879,0,64,1.40625E-5,24,14,61,72635,17732,226,774,1977,139,98,60,Tag0,unknown
1499246933879,0,60,1.318359375E-5,24,14,61,72635,17732,226,774,1977,139,98,60,Tag0,unknown
1499246933879,0,58,1.2744140625E-5,24,14,61,72635,17732,226,774,1977,139,98,60,Tag0,unknown
1499246933879,0,53,1.1645507812500002E-5,24,14,61,72635,17732,226,774,1977,139,98,60,Tag0,unknown
1499246933879,0,44,9.66796875E-6,24,14,61,72635,17732,226,774,1977,139,98,60,Tag0,unknown
1499246933888,0,44,9.66796875E-6,43,29,61,16762769,11786,10166,5597,5467,3466,484,820,Tag0,unknown
1499246933888,0,52,1.142578125E-5,43,29,61,16762769,11786,10166,5597,5467,3466,484,820,Tag0,unknown
1499246933888,0,51,1.1206054687499999E-5,43,29,61,16762769,11786,10166,5597,5467,3466,484,820,Tag0,unknown
1499246933888,0,52,1.142578125E-5,43,29,61,16762769,11786,10166,5597,5467,3466,484,820,Tag0,unknown
1499246933888,0,48,1.0546875E-5,43,29,61,16762769,11786,10166,5597,5467,3466,484,820,Tag0,unknown
1499246933888,0,40,8.7890625E-6,43,29,61,16762769,11786,10166,5597,5467,3466,484,820,Tag0,unknown
1499246933888,0,53,1.1645507812500002E-5,43,29,61,16762769,11786,10166,5597,5467,3466,484,820,Tag0,unknown
1499246933889,0,61,1.34033203125E-5,43,29,61,16762769,11786,10166,5597,5467,3466,484,820,Tag0,unknown
1499246933889,0,58,1.2744140625E-5,43,29,61,16762769,11786,10166,5597,5467,3466,484,820,Tag0,unknown
1499246933889,0,38,8.349609375E-6,43,29,61,16762769,11786,10166,5597,5467,3466,484,820,Tag0,unknown
1499246933889,0,18,3.955078125E-6,43,29,61,16762769,11786,10166,5597,5467,3466,484,820,Tag0,unknown
1499246933889,0,28,6.15234375E-6,43,29,61,16762769,11786,10166,5597,5467,3466,484,820,Tag0,unknown
1499246933889,0,50,1.0986328125E-5,43,29,61,16762769,11786,10166,5597,5467,3466,484,820,Tag0,unknown
1499246933889,0,51,1.1206054687499999E-5,43,29,61,16762769,11786,10166,5597,5467,3466,484,820,Tag0,unknown
1499246933889,0,43,9.448242187500001E-6,43,29,61,16762769,11786,10166,5597,5467,3466,484,820,Tag0,unknown
1499246933889,0,27,5.9326171875000005E-6,43,29,61,16762769,11786,10166,5597,5467,3466,484,820,Tag0,unknown
1499246933890,0,24,5.2734375E-6,43,29,61,16762769,11786,10166,5597,5467,3466,484,820,Tag0,unknown
1499246933890,0,54,1.1865234375000001E-5,43,29,61,16762769,11786,10166,5597,5467,3466,484,820,Tag0,unknown
1499246933890,0,90,1.9775390625E-5,43,29,61,16762769,11786,10166,5597,5467,3466,484,820,Tag0,unknown
1499246933890,0,92,2.021484375E-5,43,29,61,16762769,11786,10166,5597,5467,3466,484,820,Tag0,unknown
1499246933890,0,64,1.40625E-5,43,29,61,16762769,11786,10166,5597,5467,3466,484,820,Tag0,unknown
1499246933890,0,43,9.448242187500001E-6,43,29,61,16762769,11786,10166,5597,5467,3466,484,820,Tag0,unknown
1499246933890,0,54,1.1865234375000001E-5,43,29,61,16762769,11786,10166,5597,5467,3466,484,820,Tag0,unknown
1499246933891,0,89,1.95556640625E-5,43,29,61,16762769,11786,10166,5597,5467,3466,484,820,Tag0,unknown
1499246933891,0,119,2.6147460937500004E-5,43,29,61,16762769,11786,10166,5597,5467,3466,484,820,Tag0,unknown
1499246933891,0,-128,-2.8125E-5,43,29,61,16762769,11786,10166,5597,5467,3466,484,820,Tag0,unknown
1499246933891,0,91,1.99951171875E-5,43,29,61,16762769,11786,10166,5597,5467,3466,484,820,Tag0,unknown
1499246933891,0,61,1.34033203125E-5,43,29,61,16762769,11786,10166,5597,5467,3466,484,820,Tag0,unknown
1499246933891,0,60,1.318359375E-5,43,29,61,16762769,11786,10166,5597,5467,3466,484,820,Tag0,unknown
1499246933891,0,82,1.8017578124999998E-5,43,29,61,16762769,11786,10166,5597,5467,3466,484,820,Tag0,unknown
1499246933891,0,104,2.28515625E-5,43,29,61,16762769,11786,10166,5597,5467,3466,484,820,Tag0,unknown
1499246933892,0,114,2.5048828125000003E-5,43,29,61,16762769,11786,10166,5597,5467,3466,484,820,Tag0,unknown
1499246933892,0,117,2.5708007812499998E-5,43,29,61,16762769,11786,10166,5597,5467,3466,484,820,Tag0,unknown
1499246933892,0,-126,-2.7685546875E-5,43,29,61,16762769,11786,10166,5597,5467,3466,484,820,Tag0,unknown
1499246933892,0,120,2.63671875E-5,43,29,61,16762769,11786,10166,5597,5467,3466,484,820,Tag0,unknown
1499246933892,0,99,2.1752929687500003E-5,43,29,61,16762769,11786,10166,5597,5467,3466,484,820,Tag0,unknown
1499246933892,0,73,1.6040039062500002E-5,43,29,61,16762769,11786,10166,5597,5467,3466,484,820,Tag0,unknown
1499246933892,0,80,1.7578125E-5,43,29,61,16762769,11786,10166,5597,5467,3466,484,820,Tag0,unknown
1499246933892,0,115,2.52685546875E-5,43,29,61,16762769,11786,10166,5597,5467,3466,484,820,Tag0,unknown
1499246933893,0,-103,-2.26318359375E-5,43,29,61,16762769,11786,10166,5597,5467,3466,484,820,Tag0,unknown
1499246933893,0,-94,-2.0654296875000002E-5,43,29,61,16762769,11786,10166,5597,5467,3466,484,820,Tag0,unknown
1499246933893,0,-99,-2.1752929687500003E-5,43,29,61,16762769,11786,10166,5597,5467,3466,484,820,Tag0,unknown
1499246933893,0,-79,-1.7358398437500003E-5,43,29,61,16762769,11786,10166,5597,5467,3466,484,820,Tag0,unknown
1499246933893,0,-87,-1.91162109375E-5,43,29,61,16762769,11786,10166,5597,5467,3466,484,820,Tag0,unknown
1499246933893,0,-109,-2.39501953125E-5,43,29,61,16762769,11786,10166,5597,5467,3466,484,820,Tag0,unknown
1499246933893,0,-106,-2.3291015625000003E-5,43,29,61,16762769,11786,10166,5597,5467,3466,484,820,Tag0,unknown
1499246933893,0,-86,-1.8896484375000003E-5,43,29,61,16762769,11786,10166,5597,5467,3466,484,820,Tag0,unknown
1499246933894,0,-61,-1.34033203125E-5,43,29,61,16762769,11786,10166,5597,5467,3466,484,820,Tag0,unknown
1499246933894,0,-56,-1.23046875E-5,43,29,61,16762769,11786,10166,5597,5467,3466,484,820,Tag0,unknown
1499246933894,0,-70,-1.5380859375E-5,43,29,61,16762769,11786,10166,5597,5467,3466,484,820,Tag0,unknown
1499246933894,0,-79,-1.7358398437500003E-5,43,29,61,16762769,11786,10166,5597,5467,3466,484,820,Tag0,unknown
1499246933894,0,-75,-1.64794921875E-5,43,29,61,16762769,11786,10166,5597,5467,3466,484,820,Tag0,unknown
1499246933894,0,-51,-1.1206054687499999E-5,43,29,61,16762769,11786,10166,5597,5467,3466,484,820,Tag0,unknown
1499246933894,0,-24,-5.2734375E-6,43,29,61,16762769,11786,10166,5597,5467,3466,484,820,Tag0,unknown
1499246933894,0,-5,-1.0986328125E-6,43,29,61,16762769,11786,10166,5597,5467,3466,484,820,Tag0,unknown
1499246933895,0,-13,-2.8564453125E-6,43,29,61,16762769,11786,10166,5597,5467,3466,484,820,Tag0,unknown
1499246933895,0,-29,-6.3720703125E-6,43,29,61,16762769,11786,10166,5597,5467,3466,484,820,Tag0,unknown
1499246933895,0,-10,-2.197265625E-6,43,29,61,16762769,11786,10166,5597,5467,3466,484,820,Tag0,unknown
1499246933895,0,257,5.64697265625E-5,43,29,61,16762769,11786,10166,5597,5467,3466,484,820,Tag0,unknown
1499246933895,0,256,5.625E-5,43,29,61,16762769,11786,10166,5597,5467,3466,484,820,Tag0,unknown
1499246933895,0,262,5.7568359375E-5,43,29,61,16762769,11786,10166,5597,5467,3466,484,820,Tag0,unknown
1499246933895,0,275,6.04248046875E-5,43,29,61,16762769,11786,10166,5597,5467,3466,484,820,Tag0,unknown
1499246933896,0,300,6.591796875E-5,43,29,61,16762769,11786,10166,5597,5467,3466,484,820,Tag0,unknown
1499246933896,0,323,7.09716796875E-5,43,29,61,16762769,11786,10166,5597,5467,3466,484,820,Tag0,unknown
1499246933896,0,323,7.09716796875E-5,43,29,61,16762769,11786,10166,5597,5467,3466,484,820,Tag0,unknown
1499246933896,0,309,6.78955078125E-5,43,29,61,16762769,11786,10166,5597,5467,3466,484,820,Tag0,unknown
1499246933896,0,299,6.56982421875E-5,43,29,61,16762769,11786,10166,5597,5467,3466,484,820,Tag0,unknown
1499246933896,0,312,6.85546875E-5,43,29,61,16762769,11786,10166,5597,5467,3466,484,820,Tag0,unknown
1499246933896,0,337,7.40478515625E-5,43,29,61,16762769,11786,10166,5597,5467,3466,484,820,Tag0,unknown
1499246933896,0,343,7.53662109375E-5,43,29,61,16762769,11786,10166,5597,5467,3466,484,820,Tag0,unknown
1499246933897,0,325,7.14111328125E-5,43,29,61,16762769,11786,10166,5597,5467,3466,484,820,Tag0,unknown
1499246933897,0,304,6.6796875E-5,43,29,61,16762769,11786,10166,5597,5467,3466,484,820,Tag0,unknown
1499246933897,0,321,7.053222656250001E-5,43,29,61,16762769,11786,10166,5597,5467,3466,484,820,Tag0,unknown
1499246933897,0,370,8.1298828125E-5,43,29,61,16762769,11786,10166,5597,5467,3466,484,820,Tag0,unknown
1499246933897,0,145,3.18603515625E-5,43,29,61,16762769,11786,10166,5597,5467,3466,484,820,Tag0,unknown
1499246933897,0,146,3.2080078125000004E-5,43,29,61,16762769,11786,10166,5597,5467,3466,484,820,Tag0,unknown
1499246933897,0,128,2.8125E-5,43,29,61,16762769,11786,10166,5597,5467,3466,484,820,Tag0,unknown
1499246933897,0,373,8.19580078125E-5,43,29,61,16762769,11786,10166,5597,5467,3466,484,820,Tag0,unknown
1499246933898,0,130,2.8564453125E-5,43,29,61,16762769,11786,10166,5597,5467,3466,484,820,Tag0,unknown
1499246933898,0,145,3.18603515625E-5,43,29,61,16762769,11786,10166,5597,5467,3466,484,820,Tag0,unknown
1499246933898,0,381,8.371582031250001E-5,43,29,61,16762769,11786,10166,5597,5467,3466,484,820,Tag0,unknown
1499246933898,0,348,7.646484375E-5,43,29,61,16762769,11786,10166,5597,5467,3466,484,820,Tag0,unknown
1499246933898,0,337,7.40478515625E-5,43,29,61,16762769,11786,10166,5597,5467,3466,484,820,Tag0,unknown
1499246933898,0,336,7.382812500000001E-5,43,29,61,16762769,11786,10166,5597,5467,3466,484,820,Tag0,unknown
1499246933898,0,340,7.470703125E-5,43,29,61,16762769,11786,10166,5597,5467,3466,484,820,Tag0,unknown
1499246933898,0,322,7.0751953125E-5,43,29,61,16762769,11786,10166,5597,5467,3466,484,820,Tag0,unknown
1499246933899,0,290,6.3720703125E-5,43,29,61,16762769,11786,10166,5597,5467,3466,484,820,Tag0,unknown
1499246933899,0,263,5.7788085937500005E-5,43,29,61,16762769,11786,10166,5597,5467,3466,484,820,Tag0,unknown
1499246933899,0,-31,-6.8115234375E-6,43,29,61,16762769,11786,10166,5597,5467,3466,484,820,Tag0,unknown
1499246933899,0,-61,-1.34033203125E-5,43,29,61,16762769,11786,10166,5597,5467,3466,484,820,Tag0,unknown
1499246933899,0,-64,-1.40625E-5,43,29,61,16762769,11786,10166,5597,5467,3466,484,820,Tag0,unknown
1499246933899,0,-54,-1.1865234375000001E-5,43,29,61,16762769,11786,10166,5597,5467,3466,484,820,Tag0,unknown
1499246933899,0,-72,-1.58203125E-5,43,29,61,16762769,11786,10166,5597,5467,3466,484,820,Tag0,unknown
1499246933899,0,-119,-2.6147460937500004E-5,43,29,61,16762769,11786,10166,5597,5467,3466,484,820,Tag0,unknown
1499246933900,0,83,1.82373046875E-5,43,29,61,16762769,11786,10166,5597,5467,3466,484,820,Tag0,unknown
1499246933900,0,18,3.955078125E-6,43,29,61,16762769,11786,10166,5597,5467,3466,484,820,Tag0,unknown
1499246933900,0,-268,-5.8886718750000006E-5,43,29,61,16762769,11786,10166,5597,5467,3466,484,820,Tag0,unknown
1499246933900,0,0,0.0,43,29,61,16762769,11786,10166,5597,5467,3466,484,820,Tag0,unknown
1499246933900,0,34,7.4707031250000005E-6,43,29,61,16762769,11786,10166,5597,5467,3466,484,820,Tag0,unknown
1499246933900,0,43,9.448242187500001E-6,43,29,61,16762769,11786,10166,5597,5467,3466,484,820,Tag0,unknown
1499246933900,0,10,2.197265625E-6,43,29,61,16762769,11786,10166,5597,5467,3466,484,820,Tag0,unknown
1499246933900,0,-310,-6.8115234375E-5,43,29,61,16762769,11786,10166,5597,5467,3466,484,820,Tag0,unknown
1499246933901,0,-360,-7.91015625E-5,43,29,61,16762769,11786,10166,5597,5467,3466,484,820,Tag0,unknown
1499246933901,0,-140,-3.076171875E-5,43,29,61,16762769,11786,10166,5597,5467,3466,484,820,Tag0,unknown
1499246933901,0,-153,-3.3618164062500004E-5,43,29,61,16762769,11786,10166,5597,5467,3466,484,820,Tag0,unknown
1499246933901,0,-158,-3.4716796875000005E-5,43,29,61,16762769,11786,10166,5597,5467,3466,484,820,Tag0,unknown
1499246933901,0,-184,-4.04296875E-5,43,29,61,16762769,11786,10166,5597,5467,3466,484,820,Tag0,unknown
1499246933901,0,-221,-4.85595703125E-5,43,29,61,16762769,11786,10166,5597,5467,3466,484,820,Tag0,unknown
1499246933901,0,-251,-5.5151367187500004E-5,43,29,61,16762769,11786,10166,5597,5467,3466,484,820,Tag0,unknown
1499246933902,0,-249,-5.47119140625E-5,43,29,61,16762769,11786,10166,5597,5467,3466,484,820,Tag0,unknown
1499246933902,0,-231,-5.07568359375E-5,43,29,61,16762769,11786,10166,5597,5467,3466,484,820,Tag0,unknown
1499246933902,0,-231,-5.07568359375E-5,43,29,61,16762769,11786,10166,5597,5467,3466,484,820,Tag0,unknown
1499246933902,0,-250,-5.4931640625E-5,43,29,61,16762769,11786,10166,5597,5467,3466,484,820,Tag0,unknown
1499246933902,0,-250,-5.4931640625E-5,43,29,61,16762769,11786,10166,5597,5467,3466,484,820,Tag0,unknown
1499246933902,0,-226,-4.9658203125E-5,43,29,61,16762769,11786,10166,5597,5467,3466,484,820,Tag0,unknown
1499246933902,0,-216,-4.7460937500000004E-5,43,29,61,16762769,11786,10166,5597,5467,3466,484,820,Tag0,unknown
1499246933903,0,-232,-5.09765625E-5,43,29,61,16762769,11786,10166,5597,5467,3466,484,820,Tag0,unknown
1499246933903,0,-213,-4.68017578125E-5,43,29,61,16762769,11786,10166,5597,5467,3466,484,820,Tag0,unknown
1499246933903,0,-203,-4.460449218750001E-5,43,29,61,16762769,11786,10166,5597,5467,3466,484,820,Tag0,unknown
1499246933903,0,-227,-4.98779296875E-5,43,29,61,16762769,11786,10166,5597,5467,3466,484,820,Tag0,unknown
1499246933903,0,-227,-4.98779296875E-5,43,29,61,16762769,11786,10166,5597,5467,3466,484,820,Tag0,unknown
1499246933903,0,-228,-5.0097656250000005E-5,43,29,61,16762769,11786,10166,5597,5467,3466,484,820,Tag0,unknown
1499246933903,0,-245,-5.38330078125E-5,43,29,61,16762769,11786,10166,5597,5467,3466,484,820,Tag0,unknown
1499246933903,0,-518,-1.13818359375E-4,43,29,61,16762769,11786,10166,5597,5467,3466,484,820,Tag0,unknown
1499246933904,0,-515,-1.131591796875E-4,43,29,61,16762769,11786,10166,5597,5467,3466,484,820,Tag0,unknown
1499246933911,0,-222,-4.8779296875E-5,43,29,61,16762769,11786,10166,5597,5467,3466,484,820,Tag0,unknown
1499246933911,0,-195,-4.28466796875E-5,43,29,61,16762769,11786,10166,5597,5467,3466,484,820,Tag0,unknown
1499246933911,0,-182,-3.9990234375E-5,43,29,61,16762769,11786,10166,5597,5467,3466,484,820,Tag0,unknown
1499246933912,0,-156,-3.427734375E-5,43,29,61,16762769,11786,10166,5597,5467,3466,484,820,Tag0,unknown
1499246933912,0,-149,-3.27392578125E-5,43,29,61,16762769,11786,10166,5597,5467,3466,484,820,Tag0,unknown
1499246933912,0,-193,-4.2407226562500005E-5,43,29,61,16762769,11786,10166,5597,5467,3466,484,820,Tag0,unknown
1499246933912,0,-225,-4.94384765625E-5,43,29,61,16762769,11786,10166,5597,5467,3466,484,820,Tag0,unknown
1499246933912,0,-188,-4.1308593750000004E-5,43,29,61,16762769,11786,10166,5597,5467,3466,484,820,Tag0,unknown
1499246933912,0,-152,-3.33984375E-5,43,29,61,16762769,11786,10166,5597,5467,3466,484,820,Tag0,unknown
1499246933912,0,-135,-2.96630859375E-5,43,29,61,16762769,11786,10166,5597,5467,3466,484,820,Tag0,unknown
1499246933912,0,-142,-3.1201171875E-5,43,29,61,16762769,11786,10166,5597,5467,3466,484,820,Tag0,unknown
1499246933913,0,-174,-3.8232421875E-5,43,29,61,16762769,11786,10166,5597,5467,3466,484,820,Tag0,unknown
1499246933913,0,-217,-4.76806640625E-5,43,29,61,16762769,11786,10166,5597,5467,3466,484,820,Tag0,unknown
1499246933913,0,-214,-4.7021484375E-5,43,29,61,16762769,11786,10166,5597,5467,3466,484,820,Tag0,unknown
1499246933913,0,-195,-4.28466796875E-5,43,29,61,16762769,11786,10166,5597,5467,3466,484,820,Tag0,unknown
1499246933913,0,-189,-4.15283203125E-5,43,29,61,16762769,11786,10166,5597,5467,3466,484,820,Tag0,unknown
1499246933913,0,-174,-3.8232421875E-5,43,29,61,16762769,11786,10166,5597,5467,3466,484,820,Tag0,unknown
1499246933913,0,-147,-3.22998046875E-5,43,29,61,16762769,11786,10166,5597,5467,3466,484,820,Tag0,unknown
1499246933913,0,-376,-8.261718750000001E-5,43,29,61,16762769,11786,10166,5597,5467,3466,484,820,Tag0,unknown
1499246933914,0,-359,-7.88818359375E-5,43,29,61,16762769,11786,10166,5597,5467,3466,484,820,Tag0,unknown
1499246933914,0,-134,-2.9443359375000003E-5,43,29,61,16762769,11786,10166,5597,5467,3466,484,820,Tag0,unknown
1499246933914,0,-178,-3.9111328125E-5,43,29,61,16762769,11786,10166,5597,5467,3466,484,820,Tag0,unknown
1499246933914,0,-182,-3.9990234375E-5,43,29,61,16762769,11786,10166,5597,5467,3466,484,820,Tag0,unknown
1499246933914,0,-162,-3.5595703125E-5,43,29,61,16762769,11786,10166,5597,5467,3466,484,820,Tag0,unknown
1499246933914,0,-365,-8.02001953125E-5,43,29,61,16762769,11786,10166,5597,5467,3466,484,820,Tag0,unknown
1499246933914,0,-358,-7.8662109375E-5,43,29,61,16762769,11786,10166,5597,5467,3466,484,820,Tag0,unknown
1499246933914,0,-134,-2.9443359375000003E-5,43,29,61,16762769,11786,10166,5597,5467,3466,484,820,Tag0,unknown
