timestampMs,poorSignal,eegRawValue,eegRawValueVolts,attention,meditation,blinkStrength,delta,theta,alphaLow,alphaHigh,betaLow,betaHigh,gammaLow,gammaMid,tagEvent,location
1499246793300,0,33,7.2509765625E-6,56,30,53,383401,16775653,10902,28328,17402,12405,4739,2781,Tag0,unknown
1499246793301,0,35,7.6904296875E-6,56,30,53,383401,16775653,10902,28328,17402,12405,4739,2781,Tag0,unknown
1499246793301,0,21,4.614257812500001E-6,56,30,53,383401,16775653,10902,28328,17402,12405,4739,2781,Tag0,unknown
1499246793302,0,16,3.515625E-6,56,30,53,383401,16775653,10902,28328,17402,12405,4739,2781,Tag0,unknown
1499246793302,0,17,3.7353515625000003E-6,56,30,53,383401,16775653,10902,28328,17402,12405,4739,2781,Tag0,unknown
1499246793303,0,13,2.8564453125E-6,56,30,53,383401,16775653,10902,28328,17402,12405,4739,2781,Tag0,unknown
1499246793303,0,21,4.614257812500001E-6,56,30,53,383401,16775653,10902,28328,17402,12405,4739,2781,Tag0,unknown
1499246793303,0,37,8.1298828125E-6,56,30,53,383401,16775653,10902,28328,17402,12405,4739,2781,Tag0,unknown
1499246793304,0,36,7.91015625E-6,56,30,53,383401,16775653,10902,28328,17402,12405,4739,2781,Tag0,unknown
1499246793304,0,26,5.712890625E-6,56,30,53,383401,16775653,10902,28328,17402,12405,4739,2781,Tag0,unknown
1499246793304,0,29,6.3720703125E-6,56,30,53,383401,16775653,10902,28328,17402,12405,4739,2781,Tag0,unknown
1499246793305,0,40,8.7890625E-6,56,30,53,383401,16775653,10902,28328,17402,12405,4739,2781,Tag0,unknown
1499246793305,0,48,1.0546875E-5,56,30,53,383401,16775653,10902,28328,17402,12405,4739,2781,Tag0,unknown
1499246793305,0,43,9.448242187500001E-6,56,30,53,383401,16775653,10902,28328,17402,12405,4739,2781,Tag0,unknown
1499246793306,0,50,1.0986328125E-5,56,30,53,383401,16775653,10902,28328,17402,12405,4739,2781,Tag0,unknown
1499246793306,0,60,1.318359375E-5,56,30,53,383401,16775653,10902,28328,17402,12405,4739,2781,Tag0,unknown
1499246793307,0,59,1.29638671875E-5,56,30,53,383401,16775653,10902,28328,17402,12405,4739,2781,Tag0,unknown
1499246793307,0,56,1.23046875E-5,56,30,53,383401,16775653,10902,28328,17402,12405,4739,2781,Tag0,unknown
1499246793307,0,52,1.142578125E-5,56,30,53,383401,16775653,10902,28328,17402,12405,4739,2781,Tag0,unknown
1499246793308,0,56,1.23046875E-5,56,30,53,383401,16775653,10902,28328,17402,12405,4739,2781,Tag0,unknown
1499246793308,0,60,1.318359375E-5,56,30,53,383401,16775653,10902,28328,17402,12405,4739,2781,Tag0,unknown
1499246793308,0,56,1.23046875E-5,56,30,53,383401,16775653,10902,28328,17402,12405,4739,2781,Tag0,unknown
1499246793309,0,51,1.1206054687499999E-5,56,30,53,383401,16775653,10902,28328,17402,12405,4739,2781,Tag0,unknown
1499246793309,0,49,1.07666015625E-5,56,30,53,383401,16775653,10902,28328,17402,12405,4739,2781,Tag0,unknown
1499246793309,0,40,8.7890625E-6,56,30,53,383401,16775653,10902,28328,17402,12405,4739,2781,Tag0,unknown
1499246793310,0,40,8.7890625E-6,56,30,53,383401,16775653,10902,28328,17402,12405,4739,2781,Tag0,unknown
1499246793310,0,52,1.142578125E-5,56,30,53,383401,16775653,10902,28328,17402,12405,4739,2781,Tag0,unknown
1499246793310,0,53,1.1645507812500002E-5,56,30,53,383401,16775653,10902,28328,17402,12405,4739,2781,Tag0,unknown
1499246793311,0,51,1.1206054687499999E-5,56,30,53,383401,16775653,10902,28328,17402,12405,4739,2781,Tag0,unknown
1499246793311,0,45,9.8876953125E-6,56,30,53,383401,16775653,10902,28328,17402,12405,4739,2781,Tag0,unknown
1499246793311,0,22,4.833984375E-6,56,30,53,383401,16775653,10902,28328,17402,12405,4739,2781,Tag0,unknown
1499246793311,0,2,4.39453125E-7,56,30,53,383401,16775653,10902,28328,17402,12405,4739,2781,Tag0,unknown
1499246793312,0,4,8.7890625E-7,56,30,53,383401,16775653,10902,28328,17402,12405,4739,2781,Tag0,unknown
1499246793312,0,21,4.614257812500001E-6,56,30,53,383401,16775653,10902,28328,17402,12405,4739,2781,Tag0,unknown
1499246793312,0,40,8.7890625E-6,56,30,53,383401,16775653,10902,28328,17402,12405,4739,2781,Tag0,unknown
1499246793313,0,44,9.66796875E-6,56,30,53,383401,16775653,10902,28328,17402,12405,4739,2781,Tag0,unknown
1499246793313,0,39,8.5693359375E-6,56,30,53,383401,16775653,10902,28328,17402,12405,4739,2781,Tag0,unknown
1499246793313,0,36,7.91015625E-6,56,30,53,383401,16775653,10902,28328,17402,12405,4739,2781,Tag0,unknown
1499246793314,0,34,7.4707031250000005E-6,56,30,53,383401,16775653,10902,28328,17402,12405,4739,2781,Tag0,unknown
1499246793314,0,35,7.6904296875E-6,56,30,53,383401,16775653,10902,28328,17402,12405,4739,2781,Tag0,unknown
1499246793314,0,39,8.5693359375E-6,56,30,53,383401,16775653,10902,28328,17402,12405,4739,2781,Tag0,unknown
1499246793315,0,45,9.8876953125E-6,56,30,53,383401,16775653,10902,28328,17402,12405,4739,2781,Tag0,unknown
1499246793315,0,55,1.20849609375E-5,56,30,53,383401,16775653,10902,28328,17402,12405,4739,2781,Tag0,unknown
1499246793316,0,74,1.6259765625E-5,56,30,53,383401,16775653,10902,28328,17402,12405,4739,2781,Tag0,unknown
1499246793316,0,92,2.021484375E-5,56,30,53,383401,16775653,10902,28328,17402,12405,4739,2781,Tag0,unknown
1499246793316,0,81,1.77978515625E-5,56,30,53,383401,16775653,10902,28328,17402,12405,4739,2781,Tag0,unknown
1499246793317,0,60,1.318359375E-5,56,30,53,383401,16775653,10902,28328,17402,12405,4739,2781,Tag0,unknown
1499246793317,0,58,1.2744140625E-5,56,30,53,383401,16775653,10902,28328,17402,12405,4739,2781,Tag0,unknown
1499246793317,0,67,1.4721679687500002E-5,56,30,53,383401,16775653,10902,28328,17402,12405,4739,2781,Tag0,unknown
1499246793318,0,57,1.2524414062500001E-5,56,30,53,383401,16775653,10902,28328,17402,12405,4739,2781,Tag0,unknown
1499246793318,0,41,9.008789062499999E-6,56,30,53,383401,16775653,10902,28328,17402,12405,4739,2781,Tag0,unknown
1499246793318,0,32,7.03125E-6,56,30,53,383401,16775653,10902,28328,17402,12405,4739,2781,Tag0,unknown
1499246793319,0,24,5.2734375E-6,56,30,53,383401,16775653,10902,28328,17402,12405,4739,2781,Tag0,unknown
1499246793319,0,20,4.39453125E-6,56,30,53,383401,16775653,10902,28328,17402,12405,4739,2781,Tag0,unknown
1499246793319,0,7,1.5380859375E-6,56,30,53,383401,16775653,10902,28328,17402,12405,4739,2781,Tag0,unknown
1499246793320,0,-268,-5.8886718750000006E-5,56,30,53,383401,16775653,10902,28328,17402,12405,4739,2781,Tag0,unknown
1499246793320,0,-274,-6.0205078124999997E-5,56,30,53,383401,16775653,10902,28328,17402,12405,4739,2781,Tag0,unknown
1499246793320,0,-265,-5.82275390625E-5,56,30,53,383401,16775653,10902,28328,17402,12405,4739,2781,Tag0,unknown
1499246793321,0,-263,-5.7788085937500005E-5,56,30,53,383401,16775653,10902,28328,17402,12405,4739,2781,Tag0,unknown
1499246793321,0,-273,-5.998535156250001E-5,56,30,53,383401,16775653,10902,28328,17402,12405,4739,2781,Tag0,unknown
1499246793321,0,-267,-5.86669921875E-5,56,30,53,383401,16775653,10902,28328,17402,12405,4739,2781,Tag0,unknown
1499246793322,0,3,6.591796875E-7,56,30,53,383401,16775653,10902,28328,17402,12405,4739,2781,Tag0,unknown
1499246793322,0,8,1.7578125E-6,56,30,53,383401,16775653,10902,28328,17402,12405,4739,2781,Tag0,unknown
1499246793322,0,12,2.63671875E-6,56,30,53,383401,16775653,10902,28328,17402,12405,4739,2781,Tag0,unknown
1499246793322,0,23,5.0537109375E-6,56,30,53,383401,16775653,10902,28328,17402,12405,4739,2781,Tag0,unknown
1499246793323,0,32,7.03125E-6,56,30,53,383401,16775653,10902,28328,17402,12405,4739,2781,Tag0,unknown
1499246793323,0,37,8.1298828125E-6,56,30,53,383401,16775653,10902,28328,17402,12405,4739,2781,Tag0,unknown
1499246793323,0,34,7.4707031250000005E-6,56,30,53,383401,16775653,10902,28328,17402,12405,4739,2781,Tag0,unknown
1499246793324,0,19,4.1748046875E-6,56,30,53,383401,16775653,10902,28328,17402,12405,4739,2781,Tag0,unknown
1499246793324,0,19,4.1748046875E-6,56,30,53,383401,16775653,10902,28328,17402,12405,4739,2781,Tag0,unknown
1499246793324,0,32,7.03125E-6,56,30,53,383401,16775653,10902,28328,17402,12405,4739,2781,Tag0,unknown
1499246793325,0,35,7.6904296875E-6,56,30,53,383401,16775653,10902,28328,17402,12405,4739,2781,Tag0,unknown
1499246793325,0,44,9.66796875E-6,56,30,53,383401,16775653,10902,28328,17402,12405,4739,2781,Tag0,unknown
1499246793326,0,52,1.142578125E-5,56,30,53,383401,16775653,10902,28328,17402,12405,4739,2781,Tag0,unknown
1499246793327,0,53,1.1645507812500002E-5,56,30,53,383401,16775653,10902,28328,17402,12405,4739,2781,Tag0,unknown
1499246793328,0,58,1.2744140625E-5,56,30,53,383401,16775653,10902,28328,17402,12405,4739,2781,Tag0,unknown
1499246793329,0,64,1.40625E-5,56,30,53,383401,16775653,10902,28328,17402,12405,4739,2781,Tag0,unknown
1499246793330,0,59,1.29638671875E-5,56,30,53,383401,16775653,10902,28328,17402,12405,4739,2781,Tag0,unknown
1499246793330,0,57,1.2524414062500001E-5,56,30,53,383401,16775653,10902,28328,17402,12405,4739,2781,Tag0,unknown
1499246793331,0,64,1.40625E-5,56,30,53,383401,16775653,10902,28328,17402,12405,4739,2781,Tag0,unknown
1499246793331,0,67,1.4721679687500002E-5,56,30,53,383401,16775653,10902,28328,17402,12405,4739,2781,Tag0,unknown
1499246793331,0,57,1.2524414062500001E-5,56,30,53,383401,16775653,10902,28328,17402,12405,4739,2781,Tag0,unknown
1499246793332,0,48,1.0546875E-5,56,30,53,383401,16775653,10902,28328,17402,12405,4739,2781,Tag0,unknown
1499246793332,0,43,9.448242187500001E-6,56,30,53,383401,16775653,10902,28328,17402,12405,4739,2781,Tag0,unknown
1499246793333,0,54,1.1865234375000001E-5,56,30,53,383401,16775653,10902,28328,17402,12405,4739,2781,Tag0,unknown
1499246793333,0,73,1.6040039062500002E-5,56,30,53,383401,16775653,10902,28328,17402,12405,4739,2781,Tag0,unknown
1499246793333,0,73,1.6040039062500002E-5,56,30,53,383401,16775653,10902,28328,17402,12405,4739,2781,Tag0,unknown
1499246793334,0,70,1.5380859375E-5,56,30,53,383401,16775653,10902,28328,17402,12405,4739,2781,Tag0,unknown
1499246793334,0,74,1.6259765625E-5,56,30,53,383401,16775653,10902,28328,17402,12405,4739,2781,Tag0,unknown
1499246793334,0,61,1.34033203125E-5,56,30,53,383401,16775653,10902,28328,17402,12405,4739,2781,Tag0,unknown
1499246793335,0,39,8.5693359375E-6,56,30,53,383401,16775653,10902,28328,17402,12405,4739,2781,Tag0,unknown
1499246793335,0,18,3.955078125E-6,56,30,53,383401,16775653,10902,28328,17402,12405,4739,2781,Tag0,unknown
1499246793337,0,20,4.39453125E-6,56,30,53,383401,16775653,10902,28328,17402,12405,4739,2781,Tag0,unknown
1499246793337,0,34,7.4707031250000005E-6,56,30,53,383401,16775653,10902,28328,17402,12405,4739,2781,Tag0,unknown
1499246793338,0,39,8.5693359375E-6,56,30,53,383401,16775653,10902,28328,17402,12405,4739,2781,Tag0,unknown
1499246793338,0,38,8.349609375E-6,56,30,53,383401,16775653,10902,28328,17402,12405,4739,2781,Tag0,unknown
1499246793339,0,50,1.0986328125E-5,56,30,53,383401,16775653,10902,28328,17402,12405,4739,2781,Tag0,unknown
1499246793339,0,37,8.1298828125E-6,56,30,53,383401,16775653,10902,28328,17402,12405,4739,2781,Tag0,unknown
1499246793339,0,22,4.833984375E-6,56,30,53,383401,16775653,10902,28328,17402,12405,4739,2781,Tag0,unknown
1499246793339,0,37,8.1298828125E-6,56,30,53,383401,16775653,10902,28328,17402,12405,4739,2781,Tag0,unknown
1499246793340,0,60,1.318359375E-5,56,30,53,383401,16775653,10902,28328,17402,12405,4739,2781,Tag0,unknown
1499246793340,0,66,1.4501953125E-5,56,30,53,383401,16775653,10902,28328,17402,12405,4739,2781,Tag0,unknown
1499246793340,0,60,1.318359375E-5,56,30,53,383401,16775653,10902,28328,17402,12405,4739,2781,Tag0,unknown
1499246793341,0,60,1.318359375E-5,56,30,53,383401,16775653,10902,28328,17402,12405,4739,2781,Tag0,unknown
1499246793341,0,56,1.23046875E-5,56,30,53,383401,16775653,10902,28328,17402,12405,4739,2781,Tag0,unknown
1499246793342,0,53,1.1645507812500002E-5,56,30,53,383401,16775653,10902,28328,17402,12405,4739,2781,Tag0,unknown
1499246793342,0,50,1.0986328125E-5,56,30,53,383401,16775653,10902,28328,17402,12405,4739,2781,Tag0,unknown
1499246793342,0,41,9.008789062499999E-6,56,30,53,383401,16775653,10902,28328,17402,12405,4739,2781,Tag0,unknown
1499246793342,0,37,8.1298828125E-6,56,30,53,383401,16775653,10902,28328,17402,12405,4739,2781,Tag0,unknown
1499246793343,0,45,9.8876953125E-6,56,30,53,383401,16775653,10902,28328,17402,12405,4739,2781,Tag0,unknown
1499246793343,0,57,1.2524414062500001E-5,56,30,53,383401,16775653,10902,28328,17402,12405,4739,2781,Tag0,unknown
1499246793343,0,54,1.1865234375000001E-5,56,30,53,383401,16775653,10902,28328,17402,12405,4739,2781,Tag0,unknown
1499246793344,0,40,8.7890625E-6,56,30,53,383401,16775653,10902,28328,17402,12405,4739,2781,Tag0,unknown
1499246793344,0,22,4.833984375E-6,56,30,53,383401,16775653,10902,28328,17402,12405,4739,2781,Tag0,unknown
1499246793344,0,6,1.318359375E-6,56,30,53,383401,16775653,10902,28328,17402,12405,4739,2781,Tag0,unknown
1499246793345,0,16,3.515625E-6,56,30,53,383401,16775653,10902,28328,17402,12405,4739,2781,Tag0,unknown
1499246793345,0,38,8.349609375E-6,56,30,53,383401,16775653,10902,28328,17402,12405,4739,2781,Tag0,unknown
1499246793346,0,39,8.5693359375E-6,56,30,53,383401,16775653,10902,28328,17402,12405,4739,2781,Tag0,unknown
1499246793346,0,36,7.91015625E-6,56,30,53,383401,16775653,10902,28328,17402,12405,4739,2781,Tag0,unknown
1499246793346,0,42,9.228515625000002E-6,56,30,53,383401,16775653,10902,28328,17402,12405,4739,2781,Tag0,unknown
1499246793347,0,42,9.228515625000002E-6,56,30,53,383401,16775653,10902,28328,17402,12405,4739,2781,Tag0,unknown
1499246793347,0,39,8.5693359375E-6,56,30,53,383401,16775653,10902,28328,17402,12405,4739,2781,Tag0,unknown
1499246793347,0,32,7.03125E-6,56,30,53,383401,16775653,10902,28328,17402,12405,4739,2781,Tag0,unknown
1499246793348,0,19,4.1748046875E-6,56,30,53,383401,16775653,10902,28328,17402,12405,4739,2781,Tag0,unknown
1499246793348,0,10,2.197265625E-6,56,30,53,383401,16775653,10902,28328,17402,12405,4739,2781,Tag0,unknown
1499246793348,0,12,2.63671875E-6,56,30,53,383401,16775653,10902,28328,17402,12405,4739,2781,Tag0,unknown
1499246793349,0,16,3.515625E-6,56,30,53,383401,16775653,10902,28328,17402,12405,4739,2781,Tag0,unknown
1499246793349,0,17,3.7353515625000003E-6,56,30,53,383401,16775653,10902,28328,17402,12405,4739,2781,Tag0,unknown
1499246793349,0,23,5.0537109375E-6,56,30,53,383401,16775653,10902,28328,17402,12405,4739,2781,Tag0,unknown
1499246793350,0,32,7.03125E-6,56,30,53,383401,16775653,10902,28328,17402,12405,4739,2781,Tag0,unknown
1499246793350,0,53,1.1645507812500002E-5,56,30,53,383401,16775653,10902,28328,17402,12405,4739,2781,Tag0,unknown
1499246793350,0,66,1.4501953125E-5,56,30,53,383401,16775653,10902,28328,17402,12405,4739,2781,Tag0,unknown
1499246793350,0,54,1.1865234375000001E-5,56,30,53,383401,16775653,10902,28328,17402,12405,4739,2781,Tag0,unknown
1499246793351,0,43,9.448242187500001E-6,56,30,53,383401,16775653,10902,28328,17402,12405,4739,2781,Tag0,unknown
1499246793351,0,60,1.318359375E-5,56,30,53,383401,16775653,10902,28328,17402,12405,4739,2781,Tag0,unknown
1499246793352,0,81,1.77978515625E-5,56,30,53,383401,16775653,10902,28328,17402,12405,4739,2781,Tag0,unknown
1499246793352,0,76,1.669921875E-5,56,30,53,383401,16775653,10902,28328,17402,12405,4739,2781,Tag0,unknown
1499246793352,0,60,1.318359375E-5,56,30,53,383401,16775653,10902,28328,17402,12405,4739,2781,Tag0,unknown
1499246793353,0,42,9.228515625000002E-6,56,30,53,383401,16775653,10902,28328,17402,12405,4739,2781,Tag0,unknown
1499246793353,0,32,7.03125E-6,56,30,53,383401,16775653,10902,28328,17402,12405,4739,2781,Tag0,unknown
1499246793353,0,38,8.349609375E-6,56,30,53,383401,16775653,10902,28328,17402,12405,4739,2781,Tag0,unknown
1499246793358,0,51,1.1206054687499999E-5,56,30,53,383401,16775653,10902,28328,17402,12405,4739,2781,Tag0,unknown
1499246793359,0,66,1.4501953125E-5,56,30,53,383401,16775653,10902,28328,17402,12405,4739,2781,Tag0,unknown
1499246793363,0,82,1.8017578124999998E-5,56,30,53,383401,16775653,10902,28328,17402,12405,4739,2781,Tag0,unknown
1499246793364,0,96,2.109375E-5,56,30,53,383401,16775653,10902,28328,17402,12405,4739,2781,Tag0,unknown
1499246793364,0,88,1.93359375E-5,56,30,53,383401,16775653,10902,28328,17402,12405,4739,2781,Tag0,unknown
1499246793364,0,80,1.7578125E-5,56,30,53,383401,16775653,10902,28328,17402,12405,4739,2781,Tag0,unknown
1499246793364,0,82,1.8017578124999998E-5,56,30,53,383401,16775653,10902,28328,17402,12405,4739,2781,Tag0,unknown
1499246793365,0,83,1.82373046875E-5,56,30,53,383401,16775653,10902,28328,17402,12405,4739,2781,Tag0,unknown
1499246793365,0,70,1.5380859375E-5,56,30,53,383401,16775653,10902,28328,17402,12405,4739,2781,Tag0,unknown
1499246793366,0,68,1.4941406250000001E-5,56,30,53,383401,16775653,10902,28328,17402,12405,4739,2781,Tag0,unknown
1499246793367,0,71,1.56005859375E-5,56,30,53,383401,16775653,10902,28328,17402,12405,4739,2781,Tag0,unknown
1499246793367,0,74,1.6259765625E-5,56,30,53,383401,16775653,10902,28328,17402,12405,4739,2781,Tag0,unknown
1499246793368,0,87,1.91162109375E-5,56,30,53,383401,16775653,10902,28328,17402,12405,4739,2781,Tag0,unknown
1499246793368,0,101,2.2192382812500002E-5,56,30,53,383401,16775653,10902,28328,17402,12405,4739,2781,Tag0,unknown
1499246793368,0,105,2.30712890625E-5,56,30,53,383401,16775653,10902,28328,17402,12405,4739,2781,Tag0,unknown
1499246793368,0,101,2.2192382812500002E-5,56,30,53,383401,16775653,10902,28328,17402,12405,4739,2781,Tag0,unknown
1499246793369,0,92,2.021484375E-5,56,30,53,383401,16775653,10902,28328,17402,12405,4739,2781,Tag0,unknown
1499246793369,0,87,1.91162109375E-5,56,30,53,383401,16775653,10902,28328,17402,12405,4739,2781,Tag0,unknown
1499246793369,0,81,1.77978515625E-5,56,30,53,383401,16775653,10902,28328,17402,12405,4739,2781,Tag0,unknown
1499246793370,0,71,1.56005859375E-5,56,30,53,383401,16775653,10902,28328,17402,12405,4739,2781,Tag0,unknown
1499246793370,0,68,1.4941406250000001E-5,56,30,53,383401,16775653,10902,28328,17402,12405,4739,2781,Tag0,unknown
1499246793370,0,57,1.2524414062500001E-5,56,30,53,383401,16775653,10902,28328,17402,12405,4739,2781,Tag0,unknown
1499246793370,0,43,9.448242187500001E-6,56,30,53,383401,16775653,10902,28328,17402,12405,4739,2781,Tag0,unknown
1499246793371,0,48,1.0546875E-5,56,30,53,383401,16775653,10902,28328,17402,12405,4739,2781,Tag0,unknown
1499246793371,0,37,8.1298828125E-6,56,30,53,383401,16775653,10902,28328,17402,12405,4739,2781,Tag0,unknown
1499246793371,0,17,3.7353515625000003E-6,56,30,53,383401,16775653,10902,28328,17402,12405,4739,2781,Tag0,unknown
1499246793372,0,16,3.515625E-6,56,30,53,383401,16775653,10902,28328,17402,12405,4739,2781,Tag0,unknown
1499246793372,0,19,4.1748046875E-6,56,30,53,383401,16775653,10902,28328,17402,12405,4739,2781,Tag0,unknown
1499246793372,0,12,2.63671875E-6,56,30,53,383401,16775653,10902,28328,17402,12405,4739,2781,Tag0,unknown
1499246793372,0,21,4.614257812500001E-6,56,30,53,383401,16775653,10902,28328,17402,12405,4739,2781,Tag0,unknown
1499246793373,0,40,8.7890625E-6,56,30,53,383401,16775653,10902,28328,17402,12405,4739,2781,Tag0,unknown
1499246793373,0,44,9.66796875E-6,56,30,53,383401,16775653,10902,28328,17402,12405,4739,2781,Tag0,unknown
1499246793373,0,42,9.228515625000002E-6,56,30,53,383401,16775653,10902,28328,17402,12405,4739,2781,Tag0,unknown
1499246793373,0,41,9.008789062499999E-6,56,30,53,383401,16775653,10902,28328,17402,12405,4739,2781,Tag0,unknown
1499246793374,0,44,9.66796875E-6,56,30,53,383401,16775653,10902,28328,17402,12405,4739,2781,Tag0,unknown
1499246793374,0,53,1.1645507812500002E-5,56,30,53,383401,16775653,10902,28328,17402,12405,4739,2781,Tag0,unknown
1499246793374,0,60,1.318359375E-5,56,30,53,383401,16775653,10902,28328,17402,12405,4739,2781,Tag0,unknown
1499246793374,0,56,1.23046875E-5,56,30,53,383401,16775653,10902,28328,17402,12405,4739,2781,Tag0,unknown
1499246793375,0,52,1.142578125E-5,56,30,53,383401,16775653,10902,28328,17402,12405,4739,2781,Tag0,unknown
1499246793375,0,64,1.40625E-5,56,30,53,383401,16775653,10902,28328,17402,12405,4739,2781,Tag0,unknown
1499246793375,0,74,1.6259765625E-5,56,30,53,383401,16775653,10902,28328,17402,12405,4739,2781,Tag0,unknown
1499246793376,0,72,1.58203125E-5,56,30,53,383401,16775653,10902,28328,17402,12405,4739,2781,Tag0,unknown
1499246793376,0,65,1.42822265625E-5,56,30,53,383401,16775653,10902,28328,17402,12405,4739,2781,Tag0,unknown
1499246793377,0,72,1.58203125E-5,56,30,53,383401,16775653,10902,28328,17402,12405,4739,2781,Tag0,unknown
1499246793377,0,89,1.95556640625E-5,56,30,53,383401,16775653,10902,28328,17402,12405,4739,2781,Tag0,unknown
1499246793377,0,91,1.99951171875E-5,56,30,53,383401,16775653,10902,28328,17402,12405,4739,2781,Tag0,unknown
1499246793377,0,89,1.95556640625E-5,56,30,53,383401,16775653,10902,28328,17402,12405,4739,2781,Tag0,unknown
1499246793378,0,86,1.8896484375000003E-5,56,30,53,383401,16775653,10902,28328,17402,12405,4739,2781,Tag0,unknown
1499246793378,0,83,1.82373046875E-5,56,30,53,383401,16775653,10902,28328,17402,12405,4739,2781,Tag0,unknown
1499246793378,0,86,1.8896484375000003E-5,56,30,53,383401,16775653,10902,28328,17402,12405,4739,2781,Tag0,unknown
1499246793378,0,97,2.13134765625E-5,56,30,53,383401,16775653,10902,28328,17402,12405,4739,2781,Tag0,unknown
1499246793379,0,99,2.1752929687500003E-5,56,30,53,383401,16775653,10902,28328,17402,12405,4739,2781,Tag0,unknown
1499246793379,0,80,1.7578125E-5,56,30,53,383401,16775653,10902,28328,17402,12405,4739,2781,Tag0,unknown
1499246793379,0,58,1.2744140625E-5,56,30,53,383401,16775653,10902,28328,17402,12405,4739,2781,Tag0,unknown
1499246793380,0,49,1.07666015625E-5,56,30,53,383401,16775653,10902,28328,17402,12405,4739,2781,Tag0,unknown
1499246793380,0,38,8.349609375E-6,56,30,53,383401,16775653,10902,28328,17402,12405,4739,2781,Tag0,unknown
1499246793380,0,32,7.03125E-6,56,30,53,383401,16775653,10902,28328,17402,12405,4739,2781,Tag0,unknown
1499246793380,0,25,5.4931640625E-6,56,30,53,383401,16775653,10902,28328,17402,12405,4739,2781,Tag0,unknown
1499246793381,0,16,3.515625E-6,56,30,53,383401,16775653,10902,28328,17402,12405,4739,2781,Tag0,unknown
1499246793381,0,8,1.7578125E-6,56,30,53,383401,16775653,10902,28328,17402,12405,4739,2781,Tag0,unknown
1499246793381,0,8,1.7578125E-6,56,30,53,383401,16775653,10902,28328,17402,12405,4739,2781,Tag0,unknown
1499246793381,0,21,4.614257812500001E-6,56,30,53,383401,16775653,10902,28328,17402,12405,4739,2781,Tag0,unknown
1499246793382,0,32,7.03125E-6,56,30,53,383401,16775653,10902,28328,17402,12405,4739,2781,Tag0,unknown
1499246793382,0,33,7.2509765625E-6,56,30,53,383401,16775653,10902,28328,17402,12405,4739,2781,Tag0,unknown
1499246793382,0,38,8.349609375E-6,56,30,53,383401,16775653,10902,28328,17402,12405,4739,2781,Tag0,unknown
1499246793394,0,53,1.1645507812500002E-5,56,30,53,383401,16775653,10902,28328,17402,12405,4739,2781,Tag0,unknown
1499246793396,0,68,1.4941406250000001E-5,56,30,53,383401,16775653,10902,28328,17402,12405,4739,2781,Tag0,unknown
1499246793396,0,69,1.51611328125E-5,56,30,53,383401,16775653,10902,28328,17402,12405,4739,2781,Tag0,unknown
1499246793397,0,58,1.2744140625E-5,56,30,53,383401,16775653,10902,28328,17402,12405,4739,2781,Tag0,unknown
1499246793397,0,51,1.1206054687499999E-5,56,30,53,383401,16775653,10902,28328,17402,12405,4739,2781,Tag0,unknown
1499246793398,0,55,1.20849609375E-5,56,30,53,383401,16775653,10902,28328,17402,12405,4739,2781,Tag0,unknown
1499246793398,0,53,1.1645507812500002E-5,56,30,53,383401,16775653,10902,28328,17402,12405,4739,2781,Tag0,unknown
1499246793398,0,50,1.0986328125E-5,56,30,53,383401,16775653,10902,28328,17402,12405,4739,2781,Tag0,unknown
1499246793398,0,55,1.20849609375E-5,56,30,53,383401,16775653,10902,28328,17402,12405,4739,2781,Tag0,unknown
1499246793399,0,67,1.4721679687500002E-5,56,30,53,383401,16775653,10902,28328,17402,12405,4739,2781,Tag0,unknown
1499246793399,0,80,1.7578125E-5,56,30,53,383401,16775653,10902,28328,17402,12405,4739,2781,Tag0,unknown
1499246793400,0,84,1.8457031250000004E-5,56,30,53,383401,16775653,10902,28328,17402,12405,4739,2781,Tag0,unknown
1499246793400,0,73,1.6040039062500002E-5,56,30,53,383401,16775653,10902,28328,17402,12405,4739,2781,Tag0,unknown
1499246793400,0,59,1.29638671875E-5,56,30,53,383401,16775653,10902,28328,17402,12405,4739,2781,Tag0,unknown
1499246793400,0,44,9.66796875E-6,56,30,53,383401,16775653,10902,28328,17402,12405,4739,2781,Tag0,unknown
1499246793401,0,25,5.4931640625E-6,56,30,53,383401,16775653,10902,28328,17402,12405,4739,2781,Tag0,unknown
1499246793401,0,22,4.833984375E-6,56,30,53,383401,16775653,10902,28328,17402,12405,4739,2781,Tag0,unknown
1499246793401,0,38,8.349609375E-6,56,30,53,383401,16775653,10902,28328,17402,12405,4739,2781,Tag0,unknown
1499246793402,0,50,1.0986328125E-5,56,30,53,383401,16775653,10902,28328,17402,12405,4739,2781,Tag0,unknown
1499246793402,0,53,1.1645507812500002E-5,56,30,53,383401,16775653,10902,28328,17402,12405,4739,2781,Tag0,unknown
1499246793402,0,51,1.1206054687499999E-5,56,30,53,383401,16775653,10902,28328,17402,12405,4739,2781,Tag0,unknown
1499246793403,0,48,1.0546875E-5,56,30,53,383401,16775653,10902,28328,17402,12405,4739,2781,Tag0,unknown
1499246793404,0,52,1.142578125E-5,56,30,53,383401,16775653,10902,28328,17402,12405,4739,2781,Tag0,unknown
1499246793404,0,58,1.2744140625E-5,56,30,53,383401,16775653,10902,28328,17402,12405,4739,2781,Tag0,unknown
1499246793404,0,59,1.29638671875E-5,56,30,53,383401,16775653,10902,28328,17402,12405,4739,2781,Tag0,unknown
1499246793405,0,50,1.0986328125E-5,56,30,53,383401,16775653,10902,28328,17402,12405,4739,2781,Tag0,unknown
1499246793405,0,41,9.008789062499999E-6,56,30,53,383401,16775653,10902,28328,17402,12405,4739,2781,Tag0,unknown
1499246793432,0,42,9.228515625000002E-6,67,41,53,1178178,163307,16760536,24936,27837,17598,4285,2010,Tag0,unknown
1499246793433,0,44,9.66796875E-6,67,41,53,1178178,163307,16760536,24936,27837,17598,4285,2010,Tag0,unknown
1499246793433,0,35,7.6904296875E-6,67,41,53,1178178,163307,16760536,24936,27837,17598,4285,2010,Tag0,unknown
1499246793433,0,25,5.4931640625E-6,67,41,53,1178178,163307,16760536,24936,27837,17598,4285,2010,Tag0,unknown
1499246793433,0,44,9.66796875E-6,67,41,53,1178178,163307,16760536,24936,27837,17598,4285,2010,Tag0,unknown
1499246793434,0,87,1.91162109375E-5,67,41,53,1178178,163307,16760536,24936,27837,17598,4285,2010,Tag0,unknown
1499246793434,0,93,2.04345703125E-5,67,41,53,1178178,163307,16760536,24936,27837,17598,4285,2010,Tag0,unknown
1499246793434,0,71,1.56005859375E-5,67,41,53,1178178,163307,16760536,24936,27837,17598,4285,2010,Tag0,unknown
1499246793435,0,64,1.40625E-5,67,41,53,1178178,163307,16760536,24936,27837,17598,4285,2010,Tag0,unknown
1499246793435,0,88,1.93359375E-5,67,41,53,1178178,163307,16760536,24936,27837,17598,4285,2010,Tag0,unknown
1499246793436,0,103,2.26318359375E-5,67,41,53,1178178,163307,16760536,24936,27837,17598,4285,2010,Tag0,unknown
1499246793436,0,85,1.86767578125E-5,67,41,53,1178178,163307,16760536,24936,27837,17598,4285,2010,Tag0,unknown
1499246793436,0,70,1.5380859375E-5,67,41,53,1178178,163307,16760536,24936,27837,17598,4285,2010,Tag0,unknown
1499246793437,0,85,1.86767578125E-5,67,41,53,1178178,163307,16760536,24936,27837,17598,4285,2010,Tag0,unknown
1499246793437,0,113,2.48291015625E-5,67,41,53,1178178,163307,16760536,24936,27837,17598,4285,2010,Tag0,unknown
1499246793438,0,121,2.6586914062500003E-5,67,41,53,1178178,163307,16760536,24936,27837,17598,4285,2010,Tag0,unknown
1499246793438,0,106,2.3291015625000003E-5,67,41,53,1178178,163307,16760536,24936,27837,17598,4285,2010,Tag0,unknown
1499246793448,0,81,1.77978515625E-5,67,41,53,1178178,163307,16760536,24936,27837,17598,4285,2010,Tag0,unknown
1499246793449,0,65,1.42822265625E-5,67,41,53,1178178,163307,16760536,24936,27837,17598,4285,2010,Tag0,unknown
1499246793450,0,69,1.51611328125E-5,67,41,53,1178178,163307,16760536,24936,27837,17598,4285,2010,Tag0,unknown
1499246793451,0,80,1.7578125E-5,67,41,53,1178178,163307,16760536,24936,27837,17598,4285,2010,Tag0,unknown
1499246793451,0,75,1.64794921875E-5,67,41,53,1178178,163307,16760536,24936,27837,17598,4285,2010,Tag0,unknown
1499246793452,0,61,1.34033203125E-5,67,41,53,1178178,163307,16760536,24936,27837,17598,4285,2010,Tag0,unknown
1499246793452,0,58,1.2744140625E-5,67,41,53,1178178,163307,16760536,24936,27837,17598,4285,2010,Tag0,unknown
1499246793453,0,66,1.4501953125E-5,67,41,53,1178178,163307,16760536,24936,27837,17598,4285,2010,Tag0,unknown
1499246793453,0,75,1.64794921875E-5,67,41,53,1178178,163307,16760536,24936,27837,17598,4285,2010,Tag0,unknown
1499246793457,0,75,1.64794921875E-5,67,41,53,1178178,163307,16760536,24936,27837,17598,4285,2010,Tag0,unknown
1499246793459,0,60,1.318359375E-5,67,41,53,1178178,163307,16760536,24936,27837,17598,4285,2010,Tag0,unknown
1499246793459,0,54,1.1865234375000001E-5,67,41,53,1178178,163307,16760536,24936,27837,17598,4285,2010,Tag0,unknown
1499246793461,0,50,1.0986328125E-5,67,41,53,1178178,163307,16760536,24936,27837,17598,4285,2010,Tag0,unknown
1499246793462,0,42,9.228515625000002E-6,67,41,53,1178178,163307,16760536,24936,27837,17598,4285,2010,Tag0,unknown
1499246793462,0,35,7.6904296875E-6,67,41,53,1178178,163307,16760536,24936,27837,17598,4285,2010,Tag0,unknown
1499246793463,0,21,4.614257812500001E-6,67,41,53,1178178,163307,16760536,24936,27837,17598,4285,2010,Tag0,unknown
1499246793463,0,7,1.5380859375E-6,67,41,53,1178178,163307,16760536,24936,27837,17598,4285,2010,Tag0,unknown
1499246793464,0,8,1.7578125E-6,67,41,53,1178178,163307,16760536,24936,27837,17598,4285,2010,Tag0,unknown
1499246793464,0,32,7.03125E-6,67,41,53,1178178,163307,16760536,24936,27837,17598,4285,2010,Tag0,unknown
1499246793464,0,50,1.0986328125E-5,67,41,53,1178178,163307,16760536,24936,27837,17598,4285,2010,Tag0,unknown
1499246793465,0,53,1.1645507812500002E-5,67,41,53,1178178,163307,16760536,24936,27837,17598,4285,2010,Tag0,unknown
1499246793465,0,36,7.91015625E-6,67,41,53,1178178,163307,16760536,24936,27837,17598,4285,2010,Tag0,unknown
1499246793465,0,19,4.1748046875E-6,67,41,53,1178178,163307,16760536,24936,27837,17598,4285,2010,Tag0,unknown
1499246793466,0,22,4.833984375E-6,67,41,53,1178178,163307,16760536,24936,27837,17598,4285,2010,Tag0,unknown
1499246793466,0,41,9.008789062499999E-6,67,41,53,1178178,163307,16760536,24936,27837,17598,4285,2010,Tag0,unknown
1499246793466,0,59,1.29638671875E-5,67,41,53,1178178,163307,16760536,24936,27837,17598,4285,2010,Tag0,unknown
1499246793467,0,52,1.142578125E-5,67,41,53,1178178,163307,16760536,24936,27837,17598,4285,2010,Tag0,unknown
1499246793467,0,39,8.5693359375E-6,67,41,53,1178178,163307,16760536,24936,27837,17598,4285,2010,Tag0,unknown
1499246793467,0,38,8.349609375E-6,67,41,53,1178178,163307,16760536,24936,27837,17598,4285,2010,Tag0,unknown
1499246793467,0,43,9.448242187500001E-6,67,41,53,1178178,163307,16760536,24936,27837,17598,4285,2010,Tag0,unknown
1499246793468,0,53,1.1645507812500002E-5,67,41,53,1178178,163307,16760536,24936,27837,17598,4285,2010,Tag0,unknown
1499246793468,0,64,1.40625E-5,67,41,53,1178178,163307,16760536,24936,27837,17598,4285,2010,Tag0,unknown
1499246793468,0,68,1.4941406250000001E-5,67,41,53,1178178,163307,16760536,24936,27837,17598,4285,2010,Tag0,unknown
1499246793469,0,66,1.4501953125E-5,67,41,53,1178178,163307,16760536,24936,27837,17598,4285,2010,Tag0,unknown
1499246793469,0,58,1.2744140625E-5,67,41,53,1178178,163307,16760536,24936,27837,17598,4285,2010,Tag0,unknown
1499246793469,0,56,1.23046875E-5,67,41,53,1178178,163307,16760536,24936,27837,17598,4285,2010,Tag0,unknown
1499246793470,0,64,1.40625E-5,67,41,53,1178178,163307,16760536,24936,27837,17598,4285,2010,Tag0,unknown
1499246793470,0,67,1.4721679687500002E-5,67,41,53,1178178,163307,16760536,24936,27837,17598,4285,2010,Tag0,unknown
1499246793470,0,70,1.5380859375E-5,67,41,53,1178178,163307,16760536,24936,27837,17598,4285,2010,Tag0,unknown
1499246793471,0,66,1.4501953125E-5,67,41,53,1178178,163307,16760536,24936,27837,17598,4285,2010,Tag0,unknown
1499246793471,0,56,1.23046875E-5,67,41,53,1178178,163307,16760536,24936,27837,17598,4285,2010,Tag0,unknown
1499246793471,0,59,1.29638671875E-5,67,41,53,1178178,163307,16760536,24936,27837,17598,4285,2010,Tag0,unknown
1499246793472,0,76,1.669921875E-5,67,41,53,1178178,163307,16760536,24936,27837,17598,4285,2010,Tag0,unknown
1499246793472,0,92,2.021484375E-5,67,41,53,1178178,163307,16760536,24936,27837,17598,4285,2010,Tag0,unknown
1499246793472,0,106,2.3291015625000003E-5,67,41,53,1178178,163307,16760536,24936,27837,17598,4285,2010,Tag0,unknown
1499246793472,0,118,2.5927734375E-5,67,41,53,1178178,163307,16760536,24936,27837,17598,4285,2010,Tag0,unknown
1499246793473,0,-121,-2.6586914062500003E-5,67,41,53,1178178,163307,16760536,24936,27837,17598,4285,2010,Tag0,unknown
1499246793477,0,-122,-2.6806640625E-5,67,41,53,1178178,163307,16760536,24936,27837,17598,4285,2010,Tag0,unknown
1499246793478,0,124,2.724609375E-5,67,41,53,1178178,163307,16760536,24936,27837,17598,4285,2010,Tag0,unknown
1499246793478,0,115,2.52685546875E-5,67,41,53,1178178,163307,16760536,24936,27837,17598,4285,2010,Tag0,unknown
1499246793479,0,86,1.8896484375000003E-5,67,41,53,1178178,163307,16760536,24936,27837,17598,4285,2010,Tag0,unknown
1499246793479,0,60,1.318359375E-5,67,41,53,1178178,163307,16760536,24936,27837,17598,4285,2010,Tag0,unknown
1499246793480,0,48,1.0546875E-5,67,41,53,1178178,163307,16760536,24936,27837,17598,4285,2010,Tag0,unknown
1499246793480,0,48,1.0546875E-5,67,41,53,1178178,163307,16760536,24936,27837,17598,4285,2010,Tag0,unknown
1499246793481,0,51,1.1206054687499999E-5,67,41,53,1178178,163307,16760536,24936,27837,17598,4285,2010,Tag0,unknown
1499246793481,0,57,1.2524414062500001E-5,67,41,53,1178178,163307,16760536,24936,27837,17598,4285,2010,Tag0,unknown
1499246793481,0,60,1.318359375E-5,67,41,53,1178178,163307,16760536,24936,27837,17598,4285,2010,Tag0,unknown
1499246793482,0,43,9.448242187500001E-6,67,41,53,1178178,163307,16760536,24936,27837,17598,4285,2010,Tag0,unknown
1499246793482,0,21,4.614257812500001E-6,67,41,53,1178178,163307,16760536,24936,27837,17598,4285,2010,Tag0,unknown
1499246793483,0,26,5.712890625E-6,67,41,53,1178178,163307,16760536,24936,27837,17598,4285,2010,Tag0,unknown
1499246793483,0,56,1.23046875E-5,67,41,53,1178178,163307,16760536,24936,27837,17598,4285,2010,Tag0,unknown
1499246793484,0,70,1.5380859375E-5,67,41,53,1178178,163307,16760536,24936,27837,17598,4285,2010,Tag0,unknown
1499246793484,0,53,1.1645507812500002E-5,67,41,53,1178178,163307,16760536,24936,27837,17598,4285,2010,Tag0,unknown
1499246793499,0,34,7.4707031250000005E-6,67,41,53,1178178,163307,16760536,24936,27837,17598,4285,2010,Tag0,unknown
1499246793500,0,34,7.4707031250000005E-6,67,41,53,1178178,163307,16760536,24936,27837,17598,4285,2010,Tag0,unknown
1499246793500,0,44,9.66796875E-6,67,41,53,1178178,163307,16760536,24936,27837,17598,4285,2010,Tag0,unknown
1499246793501,0,50,1.0986328125E-5,67,41,53,1178178,163307,16760536,24936,27837,17598,4285,2010,Tag0,unknown
1499246793501,0,45,9.8876953125E-6,67,41,53,1178178,163307,16760536,24936,27837,17598,4285,2010,Tag0,unknown
1499246793501,0,37,8.1298828125E-6,67,41,53,1178178,163307,16760536,24936,27837,17598,4285,2010,Tag0,unknown
1499246793501,0,28,6.15234375E-6,67,41,53,1178178,163307,16760536,24936,27837,17598,4285,2010,Tag0,unknown
1499246793502,0,39,8.5693359375E-6,67,41,53,1178178,163307,16760536,24936,27837,17598,4285,2010,Tag0,unknown
1499246793502,0,60,1.318359375E-5,67,41,53,1178178,163307,16760536,24936,27837,17598,4285,2010,Tag0,unknown
1499246793502,0,59,1.29638671875E-5,67,41,53,1178178,163307,16760536,24936,27837,17598,4285,2010,Tag0,unknown
1499246793503,0,49,1.07666015625E-5,67,41,53,1178178,163307,16760536,24936,27837,17598,4285,2010,Tag0,unknown
1499246793503,0,52,1.142578125E-5,67,41,53,1178178,163307,16760536,24936,27837,17598,4285,2010,Tag0,unknown
1499246793503,0,56,1.23046875E-5,67,41,53,1178178,163307,16760536,24936,27837,17598,4285,2010,Tag0,unknown
1499246793503,0,54,1.1865234375000001E-5,67,41,53,1178178,163307,16760536,24936,27837,17598,4285,2010,Tag0,unknown
1499246793504,0,44,9.66796875E-6,67,41,53,1178178,163307,16760536,24936,27837,17598,4285,2010,Tag0,unknown
1499246793504,0,37,8.1298828125E-6,67,41,53,1178178,163307,16760536,24936,27837,17598,4285,2010,Tag0,unknown
1499246793816,0,41,9.008789062499999E-6,67,41,53,1178178,163307,16760536,24936,27837,17598,4285,2010,Tag0,unknown
1499246793817,0,51,1.1206054687499999E-5,67,41,53,1178178,163307,16760536,24936,27837,17598,4285,2010,Tag0,unknown
1499246793817,0,54,1.1865234375000001E-5,67,41,53,1178178,163307,16760536,24936,27837,17598,4285,2010,Tag0,unknown
1499246793818,0,51,1.1206054687499999E-5,67,41,53,1178178,163307,16760536,24936,27837,17598,4285,2010,Tag0,unknown
1499246793818,0,52,1.142578125E-5,67,41,53,1178178,163307,16760536,24936,27837,17598,4285,2010,Tag0,unknown
1499246793818,0,48,1.0546875E-5,67,41,53,1178178,163307,16760536,24936,27837,17598,4285,2010,Tag0,unknown
1499246793819,0,42,9.228515625000002E-6,67,41,53,1178178,163307,16760536,24936,27837,17598,4285,2010,Tag0,unknown
1499246793819,0,54,1.1865234375000001E-5,67,41,53,1178178,163307,16760536,24936,27837,17598,4285,2010,Tag0,unknown
1499246793819,0,65,1.42822265625E-5,67,41,53,1178178,163307,16760536,24936,27837,17598,4285,2010,Tag0,unknown
1499246793820,0,65,1.42822265625E-5,67,41,53,1178178,163307,16760536,24936,27837,17598,4285,2010,Tag0,unknown
1499246793820,0,59,1.29638671875E-5,67,41,53,1178178,163307,16760536,24936,27837,17598,4285,2010,Tag0,unknown
1499246793820,0,58,1.2744140625E-5,67,41,53,1178178,163307,16760536,24936,27837,17598,4285,2010,Tag0,unknown
1499246793821,0,56,1.23046875E-5,67,41,53,1178178,163307,16760536,24936,27837,17598,4285,2010,Tag0,unknown
1499246793821,0,54,1.1865234375000001E-5,67,41,53,1178178,163307,16760536,24936,27837,17598,4285,2010,Tag0,unknown
1499246793822,0,48,1.0546875E-5,67,41,53,1178178,163307,16760536,24936,27837,17598,4285,2010,Tag0,unknown
1499246793822,0,42,9.228515625000002E-6,67,41,53,1178178,163307,16760536,24936,27837,17598,4285,2010,Tag0,unknown
1499246793822,0,49,1.07666015625E-5,67,41,53,1178178,163307,16760536,24936,27837,17598,4285,2010,Tag0,unknown
1499246793823,0,60,1.318359375E-5,67,41,53,1178178,163307,16760536,24936,27837,17598,4285,2010,Tag0,unknown
1499246793823,0,60,1.318359375E-5,67,41,53,1178178,163307,16760536,24936,27837,17598,4285,2010,Tag0,unknown
1499246793823,0,49,1.07666015625E-5,67,41,53,1178178,163307,16760536,24936,27837,17598,4285,2010,Tag0,unknown
1499246793824,0,51,1.1206054687499999E-5,67,41,53,1178178,163307,16760536,24936,27837,17598,4285,2010,Tag0,unknown
1499246793824,0,58,1.2744140625E-5,67,41,53,1178178,163307,16760536,24936,27837,17598,4285,2010,Tag0,unknown
1499246793825,0,67,1.4721679687500002E-5,67,41,53,1178178,163307,16760536,24936,27837,17598,4285,2010,Tag0,unknown
1499246793825,0,73,1.6040039062500002E-5,67,41,53,1178178,163307,16760536,24936,27837,17598,4285,2010,Tag0,unknown
1499246793826,0,75,1.64794921875E-5,67,41,53,1178178,163307,16760536,24936,27837,17598,4285,2010,Tag0,unknown
1499246793826,0,82,1.8017578124999998E-5,67,41,53,1178178,163307,16760536,24936,27837,17598,4285,2010,Tag0,unknown
1499246793827,0,98,2.1533203125E-5,67,41,53,1178178,163307,16760536,24936,27837,17598,4285,2010,Tag0,unknown
1499246793827,0,113,2.48291015625E-5,67,41,53,1178178,163307,16760536,24936,27837,17598,4285,2010,Tag0,unknown
1499246793828,0,113,2.48291015625E-5,67,41,53,1178178,163307,16760536,24936,27837,17598,4285,2010,Tag0,unknown
1499246793828,0,97,2.13134765625E-5,67,41,53,1178178,163307,16760536,24936,27837,17598,4285,2010,Tag0,unknown
1499246793828,0,91,1.99951171875E-5,67,41,53,1178178,163307,16760536,24936,27837,17598,4285,2010,Tag0,unknown
1499246793828,0,100,2.197265625E-5,67,41,53,1178178,163307,16760536,24936,27837,17598,4285,2010,Tag0,unknown
1499246793829,0,102,2.2412109374999998E-5,67,41,53,1178178,163307,16760536,24936,27837,17598,4285,2010,Tag0,unknown
1499246793829,0,96,2.109375E-5,67,41,53,1178178,163307,16760536,24936,27837,17598,4285,2010,Tag0,unknown
1499246793829,0,75,1.64794921875E-5,67,41,53,1178178,163307,16760536,24936,27837,17598,4285,2010,Tag0,unknown
1499246793830,0,49,1.07666015625E-5,67,41,53,1178178,163307,16760536,24936,27837,17598,4285,2010,Tag0,unknown
1499246793830,0,29,6.3720703125E-6,67,41,53,1178178,163307,16760536,24936,27837,17598,4285,2010,Tag0,unknown
1499246793830,0,25,5.4931640625E-6,67,41,53,1178178,163307,16760536,24936,27837,17598,4285,2010,Tag0,unknown
1499246793831,0,25,5.4931640625E-6,67,41,53,1178178,163307,16760536,24936,27837,17598,4285,2010,Tag0,unknown
1499246793831,0,29,6.3720703125E-6,67,41,53,1178178,163307,16760536,24936,27837,17598,4285,2010,Tag0,unknown
1499246793831,0,33,7.2509765625E-6,67,41,53,1178178,163307,16760536,24936,27837,17598,4285,2010,Tag0,unknown
1499246793832,0,23,5.0537109375E-6,67,41,53,1178178,163307,16760536,24936,27837,17598,4285,2010,Tag0,unknown
1499246793832,0,10,2.197265625E-6,67,41,53,1178178,163307,16760536,24936,27837,17598,4285,2010,Tag0,unknown
1499246793832,0,9,1.9775390625E-6,67,41,53,1178178,163307,16760536,24936,27837,17598,4285,2010,Tag0,unknown
1499246793833,0,4,8.7890625E-7,67,41,53,1178178,163307,16760536,24936,27837,17598,4285,2010,Tag0,unknown
1499246793833,0,0,0.0,67,41,53,1178178,163307,16760536,24936,27837,17598,4285,2010,Tag0,unknown
1499246793833,0,9,1.9775390625E-6,67,41,53,1178178,163307,16760536,24936,27837,17598,4285,2010,Tag0,unknown
1499246793834,0,32,7.03125E-6,67,41,53,1178178,163307,16760536,24936,27837,17598,4285,2010,Tag0,unknown
1499246793834,0,56,1.23046875E-5,67,41,53,1178178,163307,16760536,24936,27837,17598,4285,2010,Tag0,unknown
1499246793835,0,64,1.40625E-5,67,41,53,1178178,163307,16760536,24936,27837,17598,4285,2010,Tag0,unknown
1499246793835,0,56,1.23046875E-5,67,41,53,1178178,163307,16760536,24936,27837,17598,4285,2010,Tag0,unknown
1499246793835,0,64,1.40625E-5,67,41,53,1178178,163307,16760536,24936,27837,17598,4285,2010,Tag0,unknown
1499246793836,0,80,1.7578125E-5,67,41,53,1178178,163307,16760536,24936,27837,17598,4285,2010,Tag0,unknown
1499246793836,0,92,2.021484375E-5,67,41,53,1178178,163307,16760536,24936,27837,17598,4285,2010,Tag0,unknown
1499246793836,0,102,2.2412109374999998E-5,67,41,53,1178178,163307,16760536,24936,27837,17598,4285,2010,Tag0,unknown
1499246793837,0,93,2.04345703125E-5,67,41,53,1178178,163307,16760536,24936,27837,17598,4285,2010,Tag0,unknown
1499246793837,0,74,1.6259765625E-5,67,41,53,1178178,163307,16760536,24936,27837,17598,4285,2010,Tag0,unknown
1499246793838,0,67,1.4721679687500002E-5,67,41,53,1178178,163307,16760536,24936,27837,17598,4285,2010,Tag0,unknown
1499246793838,0,70,1.5380859375E-5,67,41,53,1178178,163307,16760536,24936,27837,17598,4285,2010,Tag0,unknown
1499246793838,0,69,1.51611328125E-5,67,41,53,1178178,163307,16760536,24936,27837,17598,4285,2010,Tag0,unknown
1499246793838,0,57,1.2524414062500001E-5,67,41,53,1178178,163307,16760536,24936,27837,17598,4285,2010,Tag0,unknown
1499246793839,0,48,1.0546875E-5,67,41,53,1178178,163307,16760536,24936,27837,17598,4285,2010,Tag0,unknown
1499246793839,0,41,9.008789062499999E-6,67,41,53,1178178,163307,16760536,24936,27837,17598,4285,2010,Tag0,unknown
1499246793839,0,43,9.448242187500001E-6,67,41,53,1178178,163307,16760536,24936,27837,17598,4285,2010,Tag0,unknown
1499246793839,0,44,9.66796875E-6,67,41,53,1178178,163307,16760536,24936,27837,17598,4285,2010,Tag0,unknown
1499246793840,0,37,8.1298828125E-6,67,41,53,1178178,163307,16760536,24936,27837,17598,4285,2010,Tag0,unknown
1499246793840,0,34,7.4707031250000005E-6,67,41,53,1178178,163307,16760536,24936,27837,17598,4285,2010,Tag0,unknown
1499246793840,0,42,9.228515625000002E-6,67,41,53,1178178,163307,16760536,24936,27837,17598,4285,2010,Tag0,unknown
1499246793840,0,54,1.1865234375000001E-5,67,41,53,1178178,163307,16760536,24936,27837,17598,4285,2010,Tag0,unknown
1499246793841,0,50,1.0986328125E-5,67,41,53,1178178,163307,16760536,24936,27837,17598,4285,2010,Tag0,unknown
1499246793841,0,39,8.5693359375E-6,67,41,53,1178178,163307,16760536,24936,27837,17598,4285,2010,Tag0,unknown
1499246793841,0,34,7.4707031250000005E-6,67,41,53,1178178,163307,16760536,24936,27837,17598,4285,2010,Tag0,unknown
1499246793841,0,43,9.448242187500001E-6,67,41,53,1178178,163307,16760536,24936,27837,17598,4285,2010,Tag0,unknown
1499246793842,0,65,1.42822265625E-5,67,41,53,1178178,163307,16760536,24936,27837,17598,4285,2010,Tag0,unknown
1499246793842,0,71,1.56005859375E-5,67,41,53,1178178,163307,16760536,24936,27837,17598,4285,2010,Tag0,unknown
1499246793842,0,55,1.20849609375E-5,67,41,53,1178178,163307,16760536,24936,27837,17598,4285,2010,Tag0,unknown
1499246793842,0,39,8.5693359375E-6,67,41,53,1178178,163307,16760536,24936,27837,17598,4285,2010,Tag0,unknown
1499246793843,0,49,1.07666015625E-5,67,41,53,1178178,163307,16760536,24936,27837,17598,4285,2010,Tag0,unknown
1499246793843,0,77,1.69189453125E-5,67,41,53,1178178,163307,16760536,24936,27837,17598,4285,2010,Tag0,unknown
1499246793843,0,98,2.1533203125E-5,67,41,53,1178178,163307,16760536,24936,27837,17598,4285,2010,Tag0,unknown
1499246793844,0,90,1.9775390625E-5,67,41,53,1178178,163307,16760536,24936,27837,17598,4285,2010,Tag0,unknown
1499246793844,0,88,1.93359375E-5,67,41,53,1178178,163307,16760536,24936,27837,17598,4285,2010,Tag0,unknown
1499246793844,0,97,2.13134765625E-5,67,41,53,1178178,163307,16760536,24936,27837,17598,4285,2010,Tag0,unknown
1499246793844,0,85,1.86767578125E-5,67,41,53,1178178,163307,16760536,24936,27837,17598,4285,2010,Tag0,unknown
1499246793844,0,75,1.64794921875E-5,67,41,53,1178178,163307,16760536,24936,27837,17598,4285,2010,Tag0,unknown
1499246793845,0,69,1.51611328125E-5,67,41,53,1178178,163307,16760536,24936,27837,17598,4285,2010,Tag0,unknown
1499246793845,0,59,1.29638671875E-5,67,41,53,1178178,163307,16760536,24936,27837,17598,4285,2010,Tag0,unknown
1499246793845,0,50,1.0986328125E-5,67,41,53,1178178,163307,16760536,24936,27837,17598,4285,2010,Tag0,unknown
1499246793846,0,42,9.228515625000002E-6,67,41,53,1178178,163307,16760536,24936,27837,17598,4285,2010,Tag0,unknown
1499246793846,0,40,8.7890625E-6,67,41,53,1178178,163307,16760536,24936,27837,17598,4285,2010,Tag0,unknown
1499246793846,0,44,9.66796875E-6,67,41,53,1178178,163307,16760536,24936,27837,17598,4285,2010,Tag0,unknown
1499246793847,0,45,9.8876953125E-6,67,41,53,1178178,163307,16760536,24936,27837,17598,4285,2010,Tag0,unknown
1499246793847,0,44,9.66796875E-6,67,41,53,1178178,163307,16760536,24936,27837,17598,4285,2010,Tag0,unknown
1499246793847,0,52,1.142578125E-5,67,41,53,1178178,163307,16760536,24936,27837,17598,4285,2010,Tag0,unknown
1499246793847,0,60,1.318359375E-5,67,41,53,1178178,163307,16760536,24936,27837,17598,4285,2010,Tag0,unknown
1499246793848,0,57,1.2524414062500001E-5,67,41,53,1178178,163307,16760536,24936,27837,17598,4285,2010,Tag0,unknown
1499246793848,0,53,1.1645507812500002E-5,67,41,53,1178178,163307,16760536,24936,27837,17598,4285,2010,Tag0,unknown
1499246793849,0,52,1.142578125E-5,67,41,53,1178178,163307,16760536,24936,27837,17598,4285,2010,Tag0,unknown
1499246793849,0,57,1.2524414062500001E-5,67,41,53,1178178,163307,16760536,24936,27837,17598,4285,2010,Tag0,unknown
1499246793849,0,67,1.4721679687500002E-5,67,41,53,1178178,163307,16760536,24936,27837,17598,4285,2010,Tag0,unknown
1499246793849,0,69,1.51611328125E-5,67,41,53,1178178,163307,16760536,24936,27837,17598,4285,2010,Tag0,unknown
1499246793850,0,67,1.4721679687500002E-5,67,41,53,1178178,163307,16760536,24936,27837,17598,4285,2010,Tag0,unknown
1499246793850,0,60,1.318359375E-5,67,41,53,1178178,163307,16760536,24936,27837,17598,4285,2010,Tag0,unknown
1499246793850,0,61,1.34033203125E-5,67,41,53,1178178,163307,16760536,24936,27837,17598,4285,2010,Tag0,unknown
1499246793850,0,74,1.6259765625E-5,67,41,53,1178178,163307,16760536,24936,27837,17598,4285,2010,Tag0,unknown
1499246793851,0,87,1.91162109375E-5,67,41,53,1178178,163307,16760536,24936,27837,17598,4285,2010,Tag0,unknown
1499246793851,0,91,1.99951171875E-5,67,41,53,1178178,163307,16760536,24936,27837,17598,4285,2010,Tag0,unknown
1499246793851,0,85,1.86767578125E-5,67,41,53,1178178,163307,16760536,24936,27837,17598,4285,2010,Tag0,unknown
1499246793851,0,70,1.5380859375E-5,67,41,53,1178178,163307,16760536,24936,27837,17598,4285,2010,Tag0,unknown
1499246793852,0,70,1.5380859375E-5,67,41,53,1178178,163307,16760536,24936,27837,17598,4285,2010,Tag0,unknown
1499246793852,0,83,1.82373046875E-5,67,41,53,1178178,163307,16760536,24936,27837,17598,4285,2010,Tag0,unknown
1499246793856,0,87,1.91162109375E-5,67,41,53,1178178,163307,16760536,24936,27837,17598,4285,2010,Tag0,unknown
1499246793856,0,75,1.64794921875E-5,67,41,53,1178178,163307,16760536,24936,27837,17598,4285,2010,Tag0,unknown
1499246793857,0,80,1.7578125E-5,67,41,53,1178178,163307,16760536,24936,27837,17598,4285,2010,Tag0,unknown
1499246793857,0,89,1.95556640625E-5,67,41,53,1178178,163307,16760536,24936,27837,17598,4285,2010,Tag0,unknown
1499246793876,0,97,2.13134765625E-5,67,41,53,1178178,163307,16760536,24936,27837,17598,4285,2010,Tag0,unknown
1499246793876,0,90,1.9775390625E-5,67,41,53,1178178,163307,16760536,24936,27837,17598,4285,2010,Tag0,unknown
1499246793877,0,76,1.669921875E-5,67,41,53,1178178,163307,16760536,24936,27837,17598,4285,2010,Tag0,unknown
1499246793877,0,68,1.4941406250000001E-5,67,41,53,1178178,163307,16760536,24936,27837,17598,4285,2010,Tag0,unknown
1499246793877,0,61,1.34033203125E-5,67,41,53,1178178,163307,16760536,24936,27837,17598,4285,2010,Tag0,unknown
1499246793878,0,51,1.1206054687499999E-5,67,41,53,1178178,163307,16760536,24936,27837,17598,4285,2010,Tag0,unknown
1499246793878,0,40,8.7890625E-6,67,41,53,1178178,163307,16760536,24936,27837,17598,4285,2010,Tag0,unknown
1499246793879,0,39,8.5693359375E-6,67,41,53,1178178,163307,16760536,24936,27837,17598,4285,2010,Tag0,unknown
1499246793879,0,51,1.1206054687499999E-5,67,41,53,1178178,163307,16760536,24936,27837,17598,4285,2010,Tag0,unknown
1499246793879,0,68,1.4941406250000001E-5,67,41,53,1178178,163307,16760536,24936,27837,17598,4285,2010,Tag0,unknown
1499246793880,0,69,1.51611328125E-5,67,41,53,1178178,163307,16760536,24936,27837,17598,4285,2010,Tag0,unknown
1499246793880,0,60,1.318359375E-5,67,41,53,1178178,163307,16760536,24936,27837,17598,4285,2010,Tag0,unknown
1499246793880,0,45,9.8876953125E-6,67,41,53,1178178,163307,16760536,24936,27837,17598,4285,2010,Tag0,unknown
1499246793881,0,42,9.228515625000002E-6,67,41,53,1178178,163307,16760536,24936,27837,17598,4285,2010,Tag0,unknown
1499246793881,0,49,1.07666015625E-5,67,41,53,1178178,163307,16760536,24936,27837,17598,4285,2010,Tag0,unknown
1499246793881,0,65,1.42822265625E-5,67,41,53,1178178,163307,16760536,24936,27837,17598,4285,2010,Tag0,unknown
1499246793882,0,81,1.77978515625E-5,67,41,53,1178178,163307,16760536,24936,27837,17598,4285,2010,Tag0,unknown
1499246793882,0,87,1.91162109375E-5,67,41,53,1178178,163307,16760536,24936,27837,17598,4285,2010,Tag0,unknown
1499246793883,0,84,1.8457031250000004E-5,67,41,53,1178178,163307,16760536,24936,27837,17598,4285,2010,Tag0,unknown
1499246793883,0,82,1.8017578124999998E-5,67,41,53,1178178,163307,16760536,24936,27837,17598,4285,2010,Tag0,unknown
1499246793883,0,81,1.77978515625E-5,67,41,53,1178178,163307,16760536,24936,27837,17598,4285,2010,Tag0,unknown
1499246793883,0,82,1.8017578124999998E-5,67,41,53,1178178,163307,16760536,24936,27837,17598,4285,2010,Tag0,unknown
1499246793884,0,82,1.8017578124999998E-5,67,41,53,1178178,163307,16760536,24936,27837,17598,4285,2010,Tag0,unknown
1499246793884,0,81,1.77978515625E-5,67,41,53,1178178,163307,16760536,24936,27837,17598,4285,2010,Tag0,unknown
1499246793884,0,86,1.8896484375000003E-5,67,41,53,1178178,163307,16760536,24936,27837,17598,4285,2010,Tag0,unknown
1499246793884,0,100,2.197265625E-5,67,41,53,1178178,163307,16760536,24936,27837,17598,4285,2010,Tag0,unknown
1499246793885,0,103,2.26318359375E-5,67,41,53,1178178,163307,16760536,24936,27837,17598,4285,2010,Tag0,unknown
1499246793885,0,81,1.77978515625E-5,67,41,53,1178178,163307,16760536,24936,27837,17598,4285,2010,Tag0,unknown
1499246794527,0,56,1.23046875E-5,67,41,53,1178178,163307,16760536,24936,27837,17598,4285,2010,Tag0,unknown
1499246794528,0,53,1.1645507812500002E-5,67,41,53,1178178,163307,16760536,24936,27837,17598,4285,2010,Tag0,unknown
1499246794529,0,61,1.34033203125E-5,67,41,53,1178178,163307,16760536,24936,27837,17598,4285,2010,Tag0,unknown
1499246794529,0,70,1.5380859375E-5,67,41,53,1178178,163307,16760536,24936,27837,17598,4285,2010,Tag0,unknown
1499246794529,0,64,1.40625E-5,67,41,53,1178178,163307,16760536,24936,27837,17598,4285,2010,Tag0,unknown
1499246794529,0,44,9.66796875E-6,67,41,53,1178178,163307,16760536,24936,27837,17598,4285,2010,Tag0,unknown
1499246794530,0,29,6.3720703125E-6,67,41,53,1178178,163307,16760536,24936,27837,17598,4285,2010,Tag0,unknown
1499246794530,0,25,5.4931640625E-6,67,41,53,1178178,163307,16760536,24936,27837,17598,4285,2010,Tag0,unknown
1499246794531,0,35,7.6904296875E-6,67,41,53,1178178,163307,16760536,24936,27837,17598,4285,2010,Tag0,unknown
1499246794531,0,39,8.5693359375E-6,67,41,53,1178178,163307,16760536,24936,27837,17598,4285,2010,Tag0,unknown
1499246794531,0,33,7.2509765625E-6,67,41,53,1178178,163307,16760536,24936,27837,17598,4285,2010,Tag0,unknown
1499246794532,0,38,8.349609375E-6,67,41,53,1178178,163307,16760536,24936,27837,17598,4285,2010,Tag0,unknown
1499246794532,0,57,1.2524414062500001E-5,67,41,53,1178178,163307,16760536,24936,27837,17598,4285,2010,Tag0,unknown
1499246794532,0,84,1.8457031250000004E-5,67,41,53,1178178,163307,16760536,24936,27837,17598,4285,2010,Tag0,unknown
1499246794533,0,92,2.021484375E-5,67,41,53,1178178,163307,16760536,24936,27837,17598,4285,2010,Tag0,unknown
1499246794533,0,82,1.8017578124999998E-5,67,41,53,1178178,163307,16760536,24936,27837,17598,4285,2010,Tag0,unknown
1499246794534,0,65,1.42822265625E-5,67,41,53,1178178,163307,16760536,24936,27837,17598,4285,2010,Tag0,unknown
1499246794534,0,66,1.4501953125E-5,67,41,53,1178178,163307,16760536,24936,27837,17598,4285,2010,Tag0,unknown
1499246794535,0,72,1.58203125E-5,67,41,53,1178178,163307,16760536,24936,27837,17598,4285,2010,Tag0,unknown
1499246794536,0,74,1.6259765625E-5,67,41,53,1178178,163307,16760536,24936,27837,17598,4285,2010,Tag0,unknown
1499246794536,0,76,1.669921875E-5,67,41,53,1178178,163307,16760536,24936,27837,17598,4285,2010,Tag0,unknown
1499246794536,0,85,1.86767578125E-5,67,41,53,1178178,163307,16760536,24936,27837,17598,4285,2010,Tag0,unknown
1499246794537,0,99,2.1752929687500003E-5,67,41,53,1178178,163307,16760536,24936,27837,17598,4285,2010,Tag0,unknown
1499246794537,0,105,2.30712890625E-5,67,41,53,1178178,163307,16760536,24936,27837,17598,4285,2010,Tag0,unknown
1499246794538,0,103,2.26318359375E-5,67,41,53,1178178,163307,16760536,24936,27837,17598,4285,2010,Tag0,unknown
1499246794538,0,91,1.99951171875E-5,67,41,53,1178178,163307,16760536,24936,27837,17598,4285,2010,Tag0,unknown
1499246794538,0,83,1.82373046875E-5,67,41,53,1178178,163307,16760536,24936,27837,17598,4285,2010,Tag0,unknown
1499246794539,0,83,1.82373046875E-5,67,41,53,1178178,163307,16760536,24936,27837,17598,4285,2010,Tag0,unknown
1499246794539,0,71,1.56005859375E-5,67,41,53,1178178,163307,16760536,24936,27837,17598,4285,2010,Tag0,unknown
1499246794539,0,55,1.20849609375E-5,67,41,53,1178178,163307,16760536,24936,27837,17598,4285,2010,Tag0,unknown
1499246794540,0,49,1.07666015625E-5,67,41,53,1178178,163307,16760536,24936,27837,17598,4285,2010,Tag0,unknown
1499246794540,0,34,7.4707031250000005E-6,67,41,53,1178178,163307,16760536,24936,27837,17598,4285,2010,Tag0,unknown
1499246794540,0,37,8.1298828125E-6,67,41,53,1178178,163307,16760536,24936,27837,17598,4285,2010,Tag0,unknown
1499246794541,0,58,1.2744140625E-5,67,41,53,1178178,163307,16760536,24936,27837,17598,4285,2010,Tag0,unknown
1499246794541,0,59,1.29638671875E-5,67,41,53,1178178,163307,16760536,24936,27837,17598,4285,2010,Tag0,unknown
1499246794541,0,41,9.008789062499999E-6,67,41,53,1178178,163307,16760536,24936,27837,17598,4285,2010,Tag0,unknown
1499246794542,0,27,5.9326171875000005E-6,67,41,53,1178178,163307,16760536,24936,27837,17598,4285,2010,Tag0,unknown
1499246794542,0,20,4.39453125E-6,67,41,53,1178178,163307,16760536,24936,27837,17598,4285,2010,Tag0,unknown
1499246794542,0,16,3.515625E-6,67,41,53,1178178,163307,16760536,24936,27837,17598,4285,2010,Tag0,unknown
1499246794543,0,22,4.833984375E-6,67,41,53,1178178,163307,16760536,24936,27837,17598,4285,2010,Tag0,unknown
1499246794543,0,34,7.4707031250000005E-6,67,41,53,1178178,163307,16760536,24936,27837,17598,4285,2010,Tag0,unknown
1499246794543,0,26,5.712890625E-6,67,41,53,1178178,163307,16760536,24936,27837,17598,4285,2010,Tag0,unknown
1499246794544,0,17,3.7353515625000003E-6,67,41,53,1178178,163307,16760536,24936,27837,17598,4285,2010,Tag0,unknown
1499246794544,0,12,2.63671875E-6,67,41,53,1178178,163307,16760536,24936,27837,17598,4285,2010,Tag0,unknown
1499246794544,0,17,3.7353515625000003E-6,67,41,53,1178178,163307,16760536,24936,27837,17598,4285,2010,Tag0,unknown
1499246794544,0,17,3.7353515625000003E-6,67,41,53,1178178,163307,16760536,24936,27837,17598,4285,2010,Tag0,unknown
1499246794545,0,9,1.9775390625E-6,67,41,53,1178178,163307,16760536,24936,27837,17598,4285,2010,Tag0,unknown
1499246794545,0,4,8.7890625E-7,67,41,53,1178178,163307,16760536,24936,27837,17598,4285,2010,Tag0,unknown
1499246794546,0,4,8.7890625E-7,67,41,53,1178178,163307,16760536,24936,27837,17598,4285,2010,Tag0,unknown
1499246794546,0,7,1.5380859375E-6,67,41,53,1178178,163307,16760536,24936,27837,17598,4285,2010,Tag0,unknown
1499246794546,0,16,3.515625E-6,67,41,53,1178178,163307,16760536,24936,27837,17598,4285,2010,Tag0,unknown
1499246794547,0,11,2.4169921875E-6,67,41,53,1178178,163307,16760536,24936,27837,17598,4285,2010,Tag0,unknown
1499246794548,0,-261,-5.73486328125E-5,67,41,53,1178178,163307,16760536,24936,27837,17598,4285,2010,Tag0,unknown
1499246794548,0,-270,-5.9326171875E-5,67,41,53,1178178,163307,16760536,24936,27837,17598,4285,2010,Tag0,unknown
1499246794548,0,-258,-5.6689453125000004E-5,67,41,53,1178178,163307,16760536,24936,27837,17598,4285,2010,Tag0,unknown
1499246794549,0,7,1.5380859375E-6,67,41,53,1178178,163307,16760536,24936,27837,17598,4285,2010,Tag0,unknown
1499246794549,0,17,3.7353515625000003E-6,67,41,53,1178178,163307,16760536,24936,27837,17598,4285,2010,Tag0,unknown
1499246794549,0,28,6.15234375E-6,67,41,53,1178178,163307,16760536,24936,27837,17598,4285,2010,Tag0,unknown
1499246794550,0,45,9.8876953125E-6,67,41,53,1178178,163307,16760536,24936,27837,17598,4285,2010,Tag0,unknown
1499246794550,0,60,1.318359375E-5,67,41,53,1178178,163307,16760536,24936,27837,17598,4285,2010,Tag0,unknown
1499246794550,0,70,1.5380859375E-5,67,41,53,1178178,163307,16760536,24936,27837,17598,4285,2010,Tag0,unknown
1499246794551,0,74,1.6259765625E-5,67,41,53,1178178,163307,16760536,24936,27837,17598,4285,2010,Tag0,unknown
1499246794551,0,75,1.64794921875E-5,67,41,53,1178178,163307,16760536,24936,27837,17598,4285,2010,Tag0,unknown
1499246794551,0,81,1.77978515625E-5,67,41,53,1178178,163307,16760536,24936,27837,17598,4285,2010,Tag0,unknown
1499246794552,0,89,1.95556640625E-5,67,41,53,1178178,163307,16760536,24936,27837,17598,4285,2010,Tag0,unknown
1499246794552,0,86,1.8896484375000003E-5,67,41,53,1178178,163307,16760536,24936,27837,17598,4285,2010,Tag0,unknown
1499246794552,0,76,1.669921875E-5,67,41,53,1178178,163307,16760536,24936,27837,17598,4285,2010,Tag0,unknown
1499246794553,0,66,1.4501953125E-5,67,41,53,1178178,163307,16760536,24936,27837,17598,4285,2010,Tag0,unknown
1499246794553,0,36,7.91015625E-6,67,41,53,1178178,163307,16760536,24936,27837,17598,4285,2010,Tag0,unknown
1499246794553,0,8,1.7578125E-6,67,41,53,1178178,163307,16760536,24936,27837,17598,4285,2010,Tag0,unknown
1499246794554,0,7,1.5380859375E-6,67,41,53,1178178,163307,16760536,24936,27837,17598,4285,2010,Tag0,unknown
1499246794554,0,42,9.228515625000002E-6,67,41,53,1178178,163307,16760536,24936,27837,17598,4285,2010,Tag0,unknown
1499246794554,0,87,1.91162109375E-5,67,41,53,1178178,163307,16760536,24936,27837,17598,4285,2010,Tag0,unknown
1499246794555,0,112,2.4609375E-5,67,41,53,1178178,163307,16760536,24936,27837,17598,4285,2010,Tag0,unknown
1499246794555,0,120,2.63671875E-5,67,41,53,1178178,163307,16760536,24936,27837,17598,4285,2010,Tag0,unknown
1499246794555,0,124,2.724609375E-5,67,41,53,1178178,163307,16760536,24936,27837,17598,4285,2010,Tag0,unknown
1499246794556,0,-118,-2.5927734375E-5,67,41,53,1178178,163307,16760536,24936,27837,17598,4285,2010,Tag0,unknown
1499246794556,0,-84,-1.8457031250000004E-5,67,41,53,1178178,163307,16760536,24936,27837,17598,4285,2010,Tag0,unknown
1499246794557,0,-40,-8.7890625E-6,67,41,53,1178178,163307,16760536,24936,27837,17598,4285,2010,Tag0,unknown
1499246794557,0,-5,-1.0986328125E-6,67,41,53,1178178,163307,16760536,24936,27837,17598,4285,2010,Tag0,unknown
1499246794557,0,266,5.8447265625E-5,67,41,53,1178178,163307,16760536,24936,27837,17598,4285,2010,Tag0,unknown
1499246794558,0,273,5.998535156250001E-5,67,41,53,1178178,163307,16760536,24936,27837,17598,4285,2010,Tag0,unknown
1499246794558,0,280,6.15234375E-5,67,41,53,1178178,163307,16760536,24936,27837,17598,4285,2010,Tag0,unknown
1499246794558,0,282,6.1962890625E-5,67,41,53,1178178,163307,16760536,24936,27837,17598,4285,2010,Tag0,unknown
1499246794559,0,294,6.4599609375E-5,67,41,53,1178178,163307,16760536,24936,27837,17598,4285,2010,Tag0,unknown
1499246794559,0,314,6.8994140625E-5,67,41,53,1178178,163307,16760536,24936,27837,17598,4285,2010,Tag0,unknown
1499246794559,0,330,7.2509765625E-5,67,41,53,1178178,163307,16760536,24936,27837,17598,4285,2010,Tag0,unknown
1499246794560,0,339,7.448730468750001E-5,67,41,53,1178178,163307,16760536,24936,27837,17598,4285,2010,Tag0,unknown
1499246794560,0,339,7.448730468750001E-5,67,41,53,1178178,163307,16760536,24936,27837,17598,4285,2010,Tag0,unknown
1499246794560,0,333,7.316894531249999E-5,67,41,53,1178178,163307,16760536,24936,27837,17598,4285,2010,Tag0,unknown
1499246794561,0,325,7.14111328125E-5,67,41,53,1178178,163307,16760536,24936,27837,17598,4285,2010,Tag0,unknown
1499246794561,0,316,6.943359375000001E-5,67,41,53,1178178,163307,16760536,24936,27837,17598,4285,2010,Tag0,unknown
1499246794561,0,307,6.74560546875E-5,67,41,53,1178178,163307,16760536,24936,27837,17598,4285,2010,Tag0,unknown
1499246794561,0,283,6.218261718750001E-5,67,41,53,1178178,163307,16760536,24936,27837,17598,4285,2010,Tag0,unknown
1499246794562,0,-5,-1.0986328125E-6,67,41,53,1178178,163307,16760536,24936,27837,17598,4285,2010,Tag0,unknown
1499246794565,0,-24,-5.2734375E-6,67,41,38,1178178,163307,16760536,24936,27837,17598,4285,2010,Tag0,unknown
1499246794566,0,-28,-6.15234375E-6,67,41,38,1178178,163307,16760536,24936,27837,17598,4285,2010,Tag0,unknown
1499246794566,0,-37,-8.1298828125E-6,67,41,38,1178178,163307,16760536,24936,27837,17598,4285,2010,Tag0,unknown
1499246794566,0,-54,-1.1865234375000001E-5,67,41,38,1178178,163307,16760536,24936,27837,17598,4285,2010,Tag0,unknown
1499246794567,0,-64,-1.40625E-5,67,41,38,1178178,163307,16760536,24936,27837,17598,4285,2010,Tag0,unknown
1499246794567,0,-71,-1.56005859375E-5,67,41,38,1178178,163307,16760536,24936,27837,17598,4285,2010,Tag0,unknown
1499246794567,0,-86,-1.8896484375000003E-5,67,41,38,1178178,163307,16760536,24936,27837,17598,4285,2010,Tag0,unknown
1499246794568,0,-116,-2.548828125E-5,67,41,38,1178178,163307,16760536,24936,27837,17598,4285,2010,Tag0,unknown
1499246794568,0,107,2.35107421875E-5,67,41,38,1178178,163307,16760536,24936,27837,17598,4285,2010,Tag0,unknown
1499246794568,0,96,2.109375E-5,67,41,38,1178178,163307,16760536,24936,27837,17598,4285,2010,Tag0,unknown
1499246794569,0,104,2.28515625E-5,67,41,38,1178178,163307,16760536,24936,27837,17598,4285,2010,Tag0,unknown
1499246794569,0,92,2.021484375E-5,67,41,38,1178178,163307,16760536,24936,27837,17598,4285,2010,Tag0,unknown
1499246794569,0,52,1.142578125E-5,67,41,38,1178178,163307,16760536,24936,27837,17598,4285,2010,Tag0,unknown
1499246794570,0,21,4.614257812500001E-6,67,41,38,1178178,163307,16760536,24936,27837,17598,4285,2010,Tag0,unknown
1499246794570,0,17,3.7353515625000003E-6,67,41,38,1178178,163307,16760536,24936,27837,17598,4285,2010,Tag0,unknown
1499246794570,0,19,4.1748046875E-6,67,41,38,1178178,163307,16760536,24936,27837,17598,4285,2010,Tag0,unknown
1499246794571,0,8,1.7578125E-6,67,41,38,1178178,163307,16760536,24936,27837,17598,4285,2010,Tag0,unknown
1499246794571,0,-273,-5.998535156250001E-5,67,41,38,1178178,163307,16760536,24936,27837,17598,4285,2010,Tag0,unknown
1499246794571,0,-294,-6.4599609375E-5,67,41,38,1178178,163307,16760536,24936,27837,17598,4285,2010,Tag0,unknown
1499246794572,0,-301,-6.613769531250001E-5,67,41,38,1178178,163307,16760536,24936,27837,17598,4285,2010,Tag0,unknown
1499246794572,0,-298,-6.5478515625E-5,67,41,38,1178178,163307,16760536,24936,27837,17598,4285,2010,Tag0,unknown
1499246794572,0,-290,-6.3720703125E-5,67,41,38,1178178,163307,16760536,24936,27837,17598,4285,2010,Tag0,unknown
1499246794573,0,-295,-6.48193359375E-5,67,41,38,1178178,163307,16760536,24936,27837,17598,4285,2010,Tag0,unknown
1499246794573,0,-324,-7.119140625E-5,67,41,38,1178178,163307,16760536,24936,27837,17598,4285,2010,Tag0,unknown
1499246794573,0,-345,-7.58056640625E-5,67,41,38,1178178,163307,16760536,24936,27837,17598,4285,2010,Tag0,unknown
1499246794574,0,-337,-7.40478515625E-5,67,41,38,1178178,163307,16760536,24936,27837,17598,4285,2010,Tag0,unknown
1499246794574,0,-327,-7.18505859375E-5,67,41,38,1178178,163307,16760536,24936,27837,17598,4285,2010,Tag0,unknown
1499246794574,0,-341,-7.492675781250002E-5,67,41,38,1178178,163307,16760536,24936,27837,17598,4285,2010,Tag0,unknown
1499246794575,0,-359,-7.88818359375E-5,67,41,38,1178178,163307,16760536,24936,27837,17598,4285,2010,Tag0,unknown
1499246794575,0,-359,-7.88818359375E-5,67,41,38,1178178,163307,16760536,24936,27837,17598,4285,2010,Tag0,unknown
1499246794578,0,-343,-7.53662109375E-5,67,41,38,1178178,163307,16760536,24936,27837,17598,4285,2010,Tag0,unknown
1499246794579,0,-337,-7.40478515625E-5,67,41,38,1178178,163307,16760536,24936,27837,17598,4285,2010,Tag0,unknown
1499246794580,0,-331,-7.272949218750001E-5,67,41,38,1178178,163307,16760536,24936,27837,17598,4285,2010,Tag0,unknown
1499246794580,0,-327,-7.18505859375E-5,67,41,38,1178178,163307,16760536,24936,27837,17598,4285,2010,Tag0,unknown
1499246794580,0,-333,-7.316894531249999E-5,67,41,38,1178178,163307,16760536,24936,27837,17598,4285,2010,Tag0,unknown
1499246794581,0,-342,-7.5146484375E-5,67,41,38,1178178,163307,16760536,24936,27837,17598,4285,2010,Tag0,unknown
1499246794581,0,-341,-7.492675781250002E-5,67,41,38,1178178,163307,16760536,24936,27837,17598,4285,2010,Tag0,unknown
1499246794581,0,-341,-7.492675781250002E-5,67,41,38,1178178,163307,16760536,24936,27837,17598,4285,2010,Tag0,unknown
1499246794582,0,-342,-7.5146484375E-5,67,41,38,1178178,163307,16760536,24936,27837,17598,4285,2010,Tag0,unknown
1499246794582,0,-340,-7.470703125E-5,67,41,38,1178178,163307,16760536,24936,27837,17598,4285,2010,Tag0,unknown
1499246794582,0,-326,-7.163085937500001E-5,67,41,38,1178178,163307,16760536,24936,27837,17598,4285,2010,Tag0,unknown
1499246794582,0,-309,-6.78955078125E-5,67,41,38,1178178,163307,16760536,24936,27837,17598,4285,2010,Tag0,unknown
1499246794583,0,-310,-6.8115234375E-5,67,41,38,1178178,163307,16760536,24936,27837,17598,4285,2010,Tag0,unknown
1499246794583,0,-315,-6.92138671875E-5,67,41,38,1178178,163307,16760536,24936,27837,17598,4285,2010,Tag0,unknown
1499246794583,0,-307,-6.74560546875E-5,67,41,38,1178178,163307,16760536,24936,27837,17598,4285,2010,Tag0,unknown
1499246794584,0,-291,-6.39404296875E-5,67,41,38,1178178,163307,16760536,24936,27837,17598,4285,2010,Tag0,unknown
1499246794584,0,-289,-6.35009765625E-5,67,41,38,1178178,163307,16760536,24936,27837,17598,4285,2010,Tag0,unknown
1499246794584,0,-296,-6.50390625E-5,67,41,38,1178178,163307,16760536,24936,27837,17598,4285,2010,Tag0,unknown
1499246794585,0,-302,-6.6357421875E-5,67,41,38,1178178,163307,16760536,24936,27837,17598,4285,2010,Tag0,unknown
1499246794585,0,-307,-6.74560546875E-5,67,41,38,1178178,163307,16760536,24936,27837,17598,4285,2010,Tag0,unknown
1499246794585,0,-301,-6.613769531250001E-5,67,41,38,1178178,163307,16760536,24936,27837,17598,4285,2010,Tag0,unknown
1499246794586,0,-298,-6.5478515625E-5,67,41,38,1178178,163307,16760536,24936,27837,17598,4285,2010,Tag0,unknown
1499246794586,0,-295,-6.48193359375E-5,67,41,38,1178178,163307,16760536,24936,27837,17598,4285,2010,Tag0,unknown
1499246794586,0,-294,-6.4599609375E-5,67,41,38,1178178,163307,16760536,24936,27837,17598,4285,2010,Tag0,unknown
1499246794587,0,-291,-6.39404296875E-5,67,41,38,1178178,163307,16760536,24936,27837,17598,4285,2010,Tag0,unknown
1499246794587,0,-289,-6.35009765625E-5,67,41,38,1178178,163307,16760536,24936,27837,17598,4285,2010,Tag0,unknown
1499246794587,0,-289,-6.35009765625E-5,67,41,38,1178178,163307,16760536,24936,27837,17598,4285,2010,Tag0,unknown
1499246794588,0,-284,-6.240234375E-5,67,41,38,1178178,163307,16760536,24936,27837,17598,4285,2010,Tag0,unknown
1499246794588,0,-284,-6.240234375E-5,67,41,38,1178178,163307,16760536,24936,27837,17598,4285,2010,Tag0,unknown
1499246794588,0,-284,-6.240234375E-5,67,41,38,1178178,163307,16760536,24936,27837,17598,4285,2010,Tag0,unknown
1499246794589,0,-279,-6.13037109375E-5,67,41,38,1178178,163307,16760536,24936,27837,17598,4285,2010,Tag0,unknown
1499246794589,0,-275,-6.04248046875E-5,67,41,38,1178178,163307,16760536,24936,27837,17598,4285,2010,Tag0,unknown
1499246794589,0,-266,-5.8447265625E-5,67,41,38,1178178,163307,16760536,24936,27837,17598,4285,2010,Tag0,unknown
1499246794590,0,3,6.591796875E-7,67,41,38,1178178,163307,16760536,24936,27837,17598,4285,2010,Tag0,unknown
1499246794590,0,10,2.197265625E-6,67,41,38,1178178,163307,16760536,24936,27837,17598,4285,2010,Tag0,unknown
1499246794590,0,3,6.591796875E-7,67,41,38,1178178,163307,16760536,24936,27837,17598,4285,2010,Tag0,unknown
1499246794590,0,1,2.197265625E-7,67,41,38,1178178,163307,16760536,24936,27837,17598,4285,2010,Tag0,unknown
1499246794591,0,1,2.197265625E-7,67,41,38,1178178,163307,16760536,24936,27837,17598,4285,2010,Tag0,unknown
1499246794591,0,1,2.197265625E-7,67,41,38,1178178,163307,16760536,24936,27837,17598,4285,2010,Tag0,unknown
1499246794591,0,0,0.0,67,41,38,1178178,163307,16760536,24936,27837,17598,4285,2010,Tag0,unknown
1499246794592,0,2,4.39453125E-7,67,41,38,1178178,163307,16760536,24936,27837,17598,4285,2010,Tag0,unknown
1499246794592,0,16,3.515625E-6,67,41,38,1178178,163307,16760536,24936,27837,17598,4285,2010,Tag0,unknown
1499246794592,0,22,4.833984375E-6,67,41,38,1178178,163307,16760536,24936,27837,17598,4285,2010,Tag0,unknown
1499246794592,0,28,6.15234375E-6,67,41,38,1178178,163307,16760536,24936,27837,17598,4285,2010,Tag0,unknown
1499246794593,0,34,7.4707031250000005E-6,67,41,38,1178178,163307,16760536,24936,27837,17598,4285,2010,Tag0,unknown
1499246794593,0,35,7.6904296875E-6,67,41,38,1178178,163307,16760536,24936,27837,17598,4285,2010,Tag0,unknown
1499246794593,0,40,8.7890625E-6,67,41,38,1178178,163307,16760536,24936,27837,17598,4285,2010,Tag0,unknown
1499246794594,0,52,1.142578125E-5,67,41,38,1178178,163307,16760536,24936,27837,17598,4285,2010,Tag0,unknown
1499246794594,0,65,1.42822265625E-5,67,41,38,1178178,163307,16760536,24936,27837,17598,4285,2010,Tag0,unknown
1499246794594,0,66,1.4501953125E-5,67,41,38,1178178,163307,16760536,24936,27837,17598,4285,2010,Tag0,unknown
1499246794594,0,59,1.29638671875E-5,67,41,38,1178178,163307,16760536,24936,27837,17598,4285,2010,Tag0,unknown
1499246794595,0,64,1.40625E-5,67,41,38,1178178,163307,16760536,24936,27837,17598,4285,2010,Tag0,unknown
1499246794595,0,74,1.6259765625E-5,67,41,38,1178178,163307,16760536,24936,27837,17598,4285,2010,Tag0,unknown
1499246794596,0,86,1.8896484375000003E-5,67,41,38,1178178,163307,16760536,24936,27837,17598,4285,2010,Tag0,unknown
1499246794596,0,91,1.99951171875E-5,67,41,38,1178178,163307,16760536,24936,27837,17598,4285,2010,Tag0,unknown
1499246794596,0,87,1.91162109375E-5,67,41,38,1178178,163307,16760536,24936,27837,17598,4285,2010,Tag0,unknown
1499246794597,0,89,1.95556640625E-5,67,41,38,1178178,163307,16760536,24936,27837,17598,4285,2010,Tag0,unknown
1499246794597,0,101,2.2192382812500002E-5,67,41,38,1178178,163307,16760536,24936,27837,17598,4285,2010,Tag0,unknown
1499246794597,0,98,2.1533203125E-5,67,41,38,1178178,163307,16760536,24936,27837,17598,4285,2010,Tag0,unknown
1499246794598,0,76,1.669921875E-5,67,41,38,1178178,163307,16760536,24936,27837,17598,4285,2010,Tag0,unknown
1499246794598,0,59,1.29638671875E-5,67,41,38,1178178,163307,16760536,24936,27837,17598,4285,2010,Tag0,unknown
1499246794598,0,58,1.2744140625E-5,67,41,38,1178178,163307,16760536,24936,27837,17598,4285,2010,Tag0,unknown
1499246794598,0,72,1.58203125E-5,67,41,38,1178178,163307,16760536,24936,27837,17598,4285,2010,Tag0,unknown
1499246794599,0,82,1.8017578124999998E-5,67,41,38,1178178,163307,16760536,24936,27837,17598,4285,2010,Tag0,unknown
1499246794599,0,72,1.58203125E-5,67,41,38,1178178,163307,16760536,24936,27837,17598,4285,2010,Tag0,unknown
1499246794599,0,60,1.318359375E-5,67,41,38,1178178,163307,16760536,24936,27837,17598,4285,2010,Tag0,unknown
1499246794600,0,67,1.4721679687500002E-5,67,41,38,1178178,163307,16760536,24936,27837,17598,4285,2010,Tag0,unknown
1499246794600,0,85,1.86767578125E-5,67,41,38,1178178,163307,16760536,24936,27837,17598,4285,2010,Tag0,unknown
1499246794600,0,87,1.91162109375E-5,67,41,38,1178178,163307,16760536,24936,27837,17598,4285,2010,Tag0,unknown
1499246794601,0,82,1.8017578124999998E-5,67,41,38,1178178,163307,16760536,24936,27837,17598,4285,2010,Tag0,unknown
1499246794601,0,77,1.69189453125E-5,67,41,38,1178178,163307,16760536,24936,27837,17598,4285,2010,Tag0,unknown
1499246794601,0,76,1.669921875E-5,67,41,38,1178178,163307,16760536,24936,27837,17598,4285,2010,Tag0,unknown
1499246794602,0,75,1.64794921875E-5,67,41,38,1178178,163307,16760536,24936,27837,17598,4285,2010,Tag0,unknown
1499246794602,0,68,1.4941406250000001E-5,67,41,38,1178178,163307,16760536,24936,27837,17598,4285,2010,Tag0,unknown
1499246794602,0,65,1.42822265625E-5,67,41,38,1178178,163307,16760536,24936,27837,17598,4285,2010,Tag0,unknown
1499246794603,0,54,1.1865234375000001E-5,67,41,38,1178178,163307,16760536,24936,27837,17598,4285,2010,Tag0,unknown
1499246794603,0,59,1.29638671875E-5,67,41,38,1178178,163307,16760536,24936,27837,17598,4285,2010,Tag0,unknown
1499246794604,0,83,1.82373046875E-5,67,41,38,1178178,163307,16760536,24936,27837,17598,4285,2010,Tag0,unknown
1499246794604,0,102,2.2412109374999998E-5,67,41,38,1178178,163307,16760536,24936,27837,17598,4285,2010,Tag0,unknown
1499246794604,0,103,2.26318359375E-5,67,41,38,1178178,163307,16760536,24936,27837,17598,4285,2010,Tag0,unknown
1499246794604,0,100,2.197265625E-5,67,41,38,1178178,163307,16760536,24936,27837,17598,4285,2010,Tag0,unknown
1499246794605,0,97,2.13134765625E-5,67,41,38,1178178,163307,16760536,24936,27837,17598,4285,2010,Tag0,unknown
1499246794605,0,93,2.04345703125E-5,67,41,38,1178178,163307,16760536,24936,27837,17598,4285,2010,Tag0,unknown
1499246794606,0,88,1.93359375E-5,67,41,38,1178178,163307,16760536,24936,27837,17598,4285,2010,Tag0,unknown
1499246794606,0,82,1.8017578124999998E-5,67,41,38,1178178,163307,16760536,24936,27837,17598,4285,2010,Tag0,unknown
1499246794607,0,71,1.56005859375E-5,67,41,38,1178178,163307,16760536,24936,27837,17598,4285,2010,Tag0,unknown
1499246794607,0,58,1.2744140625E-5,67,41,38,1178178,163307,16760536,24936,27837,17598,4285,2010,Tag0,unknown
1499246794607,0,59,1.29638671875E-5,67,41,38,1178178,163307,16760536,24936,27837,17598,4285,2010,Tag0,unknown
1499246794608,0,73,1.6040039062500002E-5,67,41,38,1178178,163307,16760536,24936,27837,17598,4285,2010,Tag0,unknown
1499246794608,0,80,1.7578125E-5,67,41,38,1178178,163307,16760536,24936,27837,17598,4285,2010,Tag0,unknown
1499246794608,0,74,1.6259765625E-5,67,41,38,1178178,163307,16760536,24936,27837,17598,4285,2010,Tag0,unknown
1499246794608,0,60,1.318359375E-5,67,41,38,1178178,163307,16760536,24936,27837,17598,4285,2010,Tag0,unknown
1499246794609,0,57,1.2524414062500001E-5,67,41,38,1178178,163307,16760536,24936,27837,17598,4285,2010,Tag0,unknown
1499246794609,0,64,1.40625E-5,67,41,38,1178178,163307,16760536,24936,27837,17598,4285,2010,Tag0,unknown
1499246794609,0,66,1.4501953125E-5,67,41,38,1178178,163307,16760536,24936,27837,17598,4285,2010,Tag0,unknown
1499246794610,0,66,1.4501953125E-5,67,41,38,1178178,163307,16760536,24936,27837,17598,4285,2010,Tag0,unknown
1499246794610,0,67,1.4721679687500002E-5,67,41,38,1178178,163307,16760536,24936,27837,17598,4285,2010,Tag0,unknown
1499246794610,0,64,1.40625E-5,67,41,38,1178178,163307,16760536,24936,27837,17598,4285,2010,Tag0,unknown
1499246794611,0,59,1.29638671875E-5,67,41,38,1178178,163307,16760536,24936,27837,17598,4285,2010,Tag0,unknown
1499246794611,0,65,1.42822265625E-5,67,41,38,1178178,163307,16760536,24936,27837,17598,4285,2010,Tag0,unknown
1499246794611,0,70,1.5380859375E-5,67,41,38,1178178,163307,16760536,24936,27837,17598,4285,2010,Tag0,unknown
1499246794611,0,76,1.669921875E-5,67,41,38,1178178,163307,16760536,24936,27837,17598,4285,2010,Tag0,unknown
1499246794612,0,74,1.6259765625E-5,67,41,38,1178178,163307,16760536,24936,27837,17598,4285,2010,Tag0,unknown
1499246794612,0,68,1.4941406250000001E-5,67,41,38,1178178,163307,16760536,24936,27837,17598,4285,2010,Tag0,unknown
1499246794612,0,64,1.40625E-5,67,41,38,1178178,163307,16760536,24936,27837,17598,4285,2010,Tag0,unknown
1499246794613,0,53,1.1645507812500002E-5,67,41,38,1178178,163307,16760536,24936,27837,17598,4285,2010,Tag0,unknown
1499246794613,0,41,9.008789062499999E-6,67,41,38,1178178,163307,16760536,24936,27837,17598,4285,2010,Tag0,unknown
1499246794613,0,37,8.1298828125E-6,67,41,38,1178178,163307,16760536,24936,27837,17598,4285,2010,Tag0,unknown
1499246794614,0,38,8.349609375E-6,67,41,38,1178178,163307,16760536,24936,27837,17598,4285,2010,Tag0,unknown
1499246794614,0,39,8.5693359375E-6,67,41,38,1178178,163307,16760536,24936,27837,17598,4285,2010,Tag0,unknown
1499246794614,0,45,9.8876953125E-6,67,41,38,1178178,163307,16760536,24936,27837,17598,4285,2010,Tag0,unknown
1499246794615,0,54,1.1865234375000001E-5,67,41,38,1178178,163307,16760536,24936,27837,17598,4285,2010,Tag0,unknown
1499246794615,0,60,1.318359375E-5,67,41,38,1178178,163307,16760536,24936,27837,17598,4285,2010,Tag0,unknown
1499246794615,0,81,1.77978515625E-5,67,41,38,1178178,163307,16760536,24936,27837,17598,4285,2010,Tag0,unknown
1499246794618,0,91,1.99951171875E-5,67,41,38,1178178,163307,16760536,24936,27837,17598,4285,2010,Tag0,unknown
1499246794619,0,80,1.7578125E-5,67,41,38,1178178,163307,16760536,24936,27837,17598,4285,2010,Tag0,unknown
1499246794619,0,56,1.23046875E-5,67,41,38,1178178,163307,16760536,24936,27837,17598,4285,2010,Tag0,unknown
1499246794620,0,44,9.66796875E-6,67,41,38,1178178,163307,16760536,24936,27837,17598,4285,2010,Tag0,unknown
1499246794620,0,53,1.1645507812500002E-5,67,41,38,1178178,163307,16760536,24936,27837,17598,4285,2010,Tag0,unknown
1499246794621,0,71,1.56005859375E-5,67,41,38,1178178,163307,16760536,24936,27837,17598,4285,2010,Tag0,unknown
1499246794621,0,75,1.64794921875E-5,67,41,38,1178178,163307,16760536,24936,27837,17598,4285,2010,Tag0,unknown
1499246794621,0,60,1.318359375E-5,67,41,38,1178178,163307,16760536,24936,27837,17598,4285,2010,Tag0,unknown
1499246794622,0,52,1.142578125E-5,67,41,38,1178178,163307,16760536,24936,27837,17598,4285,2010,Tag0,unknown
1499246794624,0,64,1.40625E-5,67,41,38,1178178,163307,16760536,24936,27837,17598,4285,2010,Tag0,unknown
1499246794625,0,82,1.8017578124999998E-5,67,41,38,1178178,163307,16760536,24936,27837,17598,4285,2010,Tag0,unknown
1499246794628,0,88,1.93359375E-5,67,41,38,1178178,163307,16760536,24936,27837,17598,4285,2010,Tag0,unknown
1499246794628,0,82,1.8017578124999998E-5,67,41,38,1178178,163307,16760536,24936,27837,17598,4285,2010,Tag0,unknown
1499246794629,0,57,1.2524414062500001E-5,67,41,38,1178178,163307,16760536,24936,27837,17598,4285,2010,Tag0,unknown
1499246794629,0,48,1.0546875E-5,67,41,38,1178178,163307,16760536,24936,27837,17598,4285,2010,Tag0,unknown
1499246794629,0,54,1.1865234375000001E-5,67,41,38,1178178,163307,16760536,24936,27837,17598,4285,2010,Tag0,unknown
1499246794629,0,60,1.318359375E-5,67,41,38,1178178,163307,16760536,24936,27837,17598,4285,2010,Tag0,unknown
1499246794630,0,68,1.4941406250000001E-5,67,41,38,1178178,163307,16760536,24936,27837,17598,4285,2010,Tag0,unknown
1499246794630,0,65,1.42822265625E-5,67,41,38,1178178,163307,16760536,24936,27837,17598,4285,2010,Tag0,unknown
1499246794630,0,68,1.4941406250000001E-5,67,41,38,1178178,163307,16760536,24936,27837,17598,4285,2010,Tag0,unknown
1499246794630,0,77,1.69189453125E-5,67,41,38,1178178,163307,16760536,24936,27837,17598,4285,2010,Tag0,unknown
1499246794631,0,72,1.58203125E-5,67,41,38,1178178,163307,16760536,24936,27837,17598,4285,2010,Tag0,unknown
1499246794631,0,51,1.1206054687499999E-5,67,41,38,1178178,163307,16760536,24936,27837,17598,4285,2010,Tag0,unknown
1499246794631,0,29,6.3720703125E-6,67,41,38,1178178,163307,16760536,24936,27837,17598,4285,2010,Tag0,unknown
1499246794631,0,28,6.15234375E-6,67,41,38,1178178,163307,16760536,24936,27837,17598,4285,2010,Tag0,unknown
1499246794632,0,43,9.448242187500001E-6,67,41,38,1178178,163307,16760536,24936,27837,17598,4285,2010,Tag0,unknown
1499246794632,0,54,1.1865234375000001E-5,67,41,38,1178178,163307,16760536,24936,27837,17598,4285,2010,Tag0,unknown
1499246794632,0,49,1.07666015625E-5,67,41,38,1178178,163307,16760536,24936,27837,17598,4285,2010,Tag0,unknown
1499246794632,0,35,7.6904296875E-6,67,41,38,1178178,163307,16760536,24936,27837,17598,4285,2010,Tag0,unknown
1499246794633,0,27,5.9326171875000005E-6,67,41,38,1178178,163307,16760536,24936,27837,17598,4285,2010,Tag0,unknown
1499246794633,0,42,9.228515625000002E-6,67,41,38,1178178,163307,16760536,24936,27837,17598,4285,2010,Tag0,unknown
1499246794633,0,66,1.4501953125E-5,67,41,38,1178178,163307,16760536,24936,27837,17598,4285,2010,Tag0,unknown
1499246794633,0,80,1.7578125E-5,67,41,38,1178178,163307,16760536,24936,27837,17598,4285,2010,Tag0,unknown
1499246794634,0,73,1.6040039062500002E-5,67,41,38,1178178,163307,16760536,24936,27837,17598,4285,2010,Tag0,unknown
1499246794655,0,64,1.40625E-5,90,40,38,66193,1932,881,2452,4769,1873,597,189,Tag0,unknown
1499246794657,0,57,1.2524414062500001E-5,90,40,38,66193,1932,881,2452,4769,1873,597,189,Tag0,unknown
1499246794657,0,53,1.1645507812500002E-5,90,40,38,66193,1932,881,2452,4769,1873,597,189,Tag0,unknown
1499246794657,0,57,1.2524414062500001E-5,90,40,38,66193,1932,881,2452,4769,1873,597,189,Tag0,unknown
1499246794657,0,58,1.2744140625E-5,90,40,38,66193,1932,881,2452,4769,1873,597,189,Tag0,unknown
1499246794658,0,52,1.142578125E-5,90,40,38,66193,1932,881,2452,4769,1873,597,189,Tag0,unknown
1499246794658,0,44,9.66796875E-6,90,40,38,66193,1932,881,2452,4769,1873,597,189,Tag0,unknown
1499246794658,0,50,1.0986328125E-5,90,40,38,66193,1932,881,2452,4769,1873,597,189,Tag0,unknown
1499246794670,0,58,1.2744140625E-5,90,40,38,66193,1932,881,2452,4769,1873,597,189,Tag0,unknown
1499246794670,0,65,1.42822265625E-5,90,40,38,66193,1932,881,2452,4769,1873,597,189,Tag0,unknown
1499246794671,0,49,1.07666015625E-5,90,40,38,66193,1932,881,2452,4769,1873,597,189,Tag0,unknown
1499246794671,0,32,7.03125E-6,90,40,38,66193,1932,881,2452,4769,1873,597,189,Tag0,unknown
1499246794672,0,34,7.4707031250000005E-6,90,40,38,66193,1932,881,2452,4769,1873,597,189,Tag0,unknown
1499246794672,0,53,1.1645507812500002E-5,90,40,38,66193,1932,881,2452,4769,1873,597,189,Tag0,unknown
1499246794672,0,70,1.5380859375E-5,90,40,38,66193,1932,881,2452,4769,1873,597,189,Tag0,unknown
1499246794672,0,70,1.5380859375E-5,90,40,38,66193,1932,881,2452,4769,1873,597,189,Tag0,unknown
1499246794673,0,58,1.2744140625E-5,90,40,38,66193,1932,881,2452,4769,1873,597,189,Tag0,unknown
1499246794673,0,44,9.66796875E-6,90,40,38,66193,1932,881,2452,4769,1873,597,189,Tag0,unknown
1499246794673,0,45,9.8876953125E-6,90,40,38,66193,1932,881,2452,4769,1873,597,189,Tag0,unknown
1499246794674,0,56,1.23046875E-5,90,40,38,66193,1932,881,2452,4769,1873,597,189,Tag0,unknown
1499246794674,0,57,1.2524414062500001E-5,90,40,38,66193,1932,881,2452,4769,1873,597,189,Tag0,unknown
1499246794674,0,65,1.42822265625E-5,90,40,38,66193,1932,881,2452,4769,1873,597,189,Tag0,unknown
1499246794674,0,83,1.82373046875E-5,90,40,38,66193,1932,881,2452,4769,1873,597,189,Tag0,unknown
1499246794675,0,88,1.93359375E-5,90,40,38,66193,1932,881,2452,4769,1873,597,189,Tag0,unknown
1499246794675,0,74,1.6259765625E-5,90,40,38,66193,1932,881,2452,4769,1873,597,189,Tag0,unknown
1499246794676,0,60,1.318359375E-5,90,40,38,66193,1932,881,2452,4769,1873,597,189,Tag0,unknown
1499246794676,0,55,1.20849609375E-5,90,40,38,66193,1932,881,2452,4769,1873,597,189,Tag0,unknown
1499246794676,0,56,1.23046875E-5,90,40,38,66193,1932,881,2452,4769,1873,597,189,Tag0,unknown
1499246794676,0,58,1.2744140625E-5,90,40,38,66193,1932,881,2452,4769,1873,597,189,Tag0,unknown
1499246794677,0,50,1.0986328125E-5,90,40,38,66193,1932,881,2452,4769,1873,597,189,Tag0,unknown
1499246794677,0,44,9.66796875E-6,90,40,38,66193,1932,881,2452,4769,1873,597,189,Tag0,unknown
1499246794677,0,48,1.0546875E-5,90,40,38,66193,1932,881,2452,4769,1873,597,189,Tag0,unknown
1499246794678,0,50,1.0986328125E-5,90,40,38,66193,1932,881,2452,4769,1873,597,189,Tag0,unknown
1499246794678,0,53,1.1645507812500002E-5,90,40,38,66193,1932,881,2452,4769,1873,597,189,Tag0,unknown
1499246794678,0,57,1.2524414062500001E-5,90,40,38,66193,1932,881,2452,4769,1873,597,189,Tag0,unknown
1499246794678,0,59,1.29638671875E-5,90,40,38,66193,1932,881,2452,4769,1873,597,189,Tag0,unknown
1499246794679,0,60,1.318359375E-5,90,40,38,66193,1932,881,2452,4769,1873,597,189,Tag0,unknown
1499246794679,0,68,1.4941406250000001E-5,90,40,38,66193,1932,881,2452,4769,1873,597,189,Tag0,unknown
1499246794679,0,73,1.6040039062500002E-5,90,40,38,66193,1932,881,2452,4769,1873,597,189,Tag0,unknown
1499246794680,0,76,1.669921875E-5,90,40,38,66193,1932,881,2452,4769,1873,597,189,Tag0,unknown
1499246794680,0,73,1.6040039062500002E-5,90,40,38,66193,1932,881,2452,4769,1873,597,189,Tag0,unknown
1499246794680,0,65,1.42822265625E-5,90,40,38,66193,1932,881,2452,4769,1873,597,189,Tag0,unknown
1499246794680,0,67,1.4721679687500002E-5,90,40,38,66193,1932,881,2452,4769,1873,597,189,Tag0,unknown
1499246794681,0,74,1.6259765625E-5,90,40,38,66193,1932,881,2452,4769,1873,597,189,Tag0,unknown
1499246794681,0,77,1.69189453125E-5,90,40,38,66193,1932,881,2452,4769,1873,597,189,Tag0,unknown
1499246794681,0,76,1.669921875E-5,90,40,38,66193,1932,881,2452,4769,1873,597,189,Tag0,unknown
1499246794682,0,73,1.6040039062500002E-5,90,40,38,66193,1932,881,2452,4769,1873,597,189,Tag0,unknown
1499246794682,0,72,1.58203125E-5,90,40,38,66193,1932,881,2452,4769,1873,597,189,Tag0,unknown
1499246794683,0,74,1.6259765625E-5,90,40,38,66193,1932,881,2452,4769,1873,597,189,Tag0,unknown
1499246794683,0,84,1.8457031250000004E-5,90,40,38,66193,1932,881,2452,4769,1873,597,189,Tag0,unknown
1499246794683,0,77,1.69189453125E-5,90,40,38,66193,1932,881,2452,4769,1873,597,189,Tag0,unknown
1499246794684,0,60,1.318359375E-5,90,40,38,66193,1932,881,2452,4769,1873,597,189,Tag0,unknown
1499246794684,0,49,1.07666015625E-5,90,40,38,66193,1932,881,2452,4769,1873,597,189,Tag0,unknown
1499246794684,0,56,1.23046875E-5,90,40,38,66193,1932,881,2452,4769,1873,597,189,Tag0,unknown
1499246794685,0,69,1.51611328125E-5,90,40,38,66193,1932,881,2452,4769,1873,597,189,Tag0,unknown
1499246794685,0,66,1.4501953125E-5,90,40,38,66193,1932,881,2452,4769,1873,597,189,Tag0,unknown
1499246794685,0,53,1.1645507812500002E-5,90,40,38,66193,1932,881,2452,4769,1873,597,189,Tag0,unknown
1499246794686,0,51,1.1206054687499999E-5,90,40,38,66193,1932,881,2452,4769,1873,597,189,Tag0,unknown
1499246794686,0,60,1.318359375E-5,90,40,38,66193,1932,881,2452,4769,1873,597,189,Tag0,unknown
1499246794686,0,69,1.51611328125E-5,90,40,38,66193,1932,881,2452,4769,1873,597,189,Tag0,unknown
1499246794687,0,67,1.4721679687500002E-5,90,40,38,66193,1932,881,2452,4769,1873,597,189,Tag0,unknown
1499246794687,0,69,1.51611328125E-5,90,40,38,66193,1932,881,2452,4769,1873,597,189,Tag0,unknown
1499246794687,0,70,1.5380859375E-5,90,40,38,66193,1932,881,2452,4769,1873,597,189,Tag0,unknown
1499246794688,0,71,1.56005859375E-5,90,40,38,66193,1932,881,2452,4769,1873,597,189,Tag0,unknown
1499246794688,0,80,1.7578125E-5,90,40,38,66193,1932,881,2452,4769,1873,597,189,Tag0,unknown
1499246794688,0,84,1.8457031250000004E-5,90,40,38,66193,1932,881,2452,4769,1873,597,189,Tag0,unknown
1499246794688,0,73,1.6040039062500002E-5,90,40,38,66193,1932,881,2452,4769,1873,597,189,Tag0,unknown
1499246794689,0,55,1.20849609375E-5,90,40,38,66193,1932,881,2452,4769,1873,597,189,Tag0,unknown
1499246794689,0,54,1.1865234375000001E-5,90,40,38,66193,1932,881,2452,4769,1873,597,189,Tag0,unknown
1499246794689,0,70,1.5380859375E-5,90,40,38,66193,1932,881,2452,4769,1873,597,189,Tag0,unknown
1499246794689,0,82,1.8017578124999998E-5,90,40,38,66193,1932,881,2452,4769,1873,597,189,Tag0,unknown
1499246794690,0,85,1.86767578125E-5,90,40,38,66193,1932,881,2452,4769,1873,597,189,Tag0,unknown
1499246794690,0,96,2.109375E-5,90,40,38,66193,1932,881,2452,4769,1873,597,189,Tag0,unknown
1499246794690,0,106,2.3291015625000003E-5,90,40,38,66193,1932,881,2452,4769,1873,597,189,Tag0,unknown
1499246794691,0,113,2.48291015625E-5,90,40,38,66193,1932,881,2452,4769,1873,597,189,Tag0,unknown
1499246794691,0,112,2.4609375E-5,90,40,38,66193,1932,881,2452,4769,1873,597,189,Tag0,unknown
1499246794691,0,102,2.2412109374999998E-5,90,40,38,66193,1932,881,2452,4769,1873,597,189,Tag0,unknown
1499246794691,0,91,1.99951171875E-5,90,40,38,66193,1932,881,2452,4769,1873,597,189,Tag0,unknown
1499246794692,0,97,2.13134765625E-5,90,40,38,66193,1932,881,2452,4769,1873,597,189,Tag0,unknown
1499246794692,0,103,2.26318359375E-5,90,40,38,66193,1932,881,2452,4769,1873,597,189,Tag0,unknown
1499246794692,0,89,1.95556640625E-5,90,40,38,66193,1932,881,2452,4769,1873,597,189,Tag0,unknown
1499246794692,0,65,1.42822265625E-5,90,40,38,66193,1932,881,2452,4769,1873,597,189,Tag0,unknown
1499246794693,0,49,1.07666015625E-5,90,40,38,66193,1932,881,2452,4769,1873,597,189,Tag0,unknown
1499246794693,0,42,9.228515625000002E-6,90,40,38,66193,1932,881,2452,4769,1873,597,189,Tag0,unknown
1499246794693,0,49,1.07666015625E-5,90,40,38,66193,1932,881,2452,4769,1873,597,189,Tag0,unknown
1499246794694,0,58,1.2744140625E-5,90,40,38,66193,1932,881,2452,4769,1873,597,189,Tag0,unknown
1499246794694,0,72,1.58203125E-5,90,40,38,66193,1932,881,2452,4769,1873,597,189,Tag0,unknown
1499246795114,0,83,1.82373046875E-5,90,40,38,66193,1932,881,2452,4769,1873,597,189,Tag0,unknown
1499246795116,0,89,1.95556640625E-5,90,40,38,66193,1932,881,2452,4769,1873,597,189,Tag0,unknown
1499246795117,0,102,2.2412109374999998E-5,90,40,38,66193,1932,881,2452,4769,1873,597,189,Tag0,unknown
1499246795118,0,112,2.4609375E-5,90,40,38,66193,1932,881,2452,4769,1873,597,189,Tag0,unknown
1499246795118,0,113,2.48291015625E-5,90,40,38,66193,1932,881,2452,4769,1873,597,189,Tag0,unknown
1499246795118,0,108,2.3730468750000002E-5,90,40,38,66193,1932,881,2452,4769,1873,597,189,Tag0,unknown
1499246795119,0,107,2.35107421875E-5,90,40,38,66193,1932,881,2452,4769,1873,597,189,Tag0,unknown
1499246795119,0,107,2.35107421875E-5,90,40,38,66193,1932,881,2452,4769,1873,597,189,Tag0,unknown
1499246795119,0,106,2.3291015625000003E-5,90,40,38,66193,1932,881,2452,4769,1873,597,189,Tag0,unknown
1499246795120,0,113,2.48291015625E-5,90,40,38,66193,1932,881,2452,4769,1873,597,189,Tag0,unknown
1499246795120,0,115,2.52685546875E-5,90,40,38,66193,1932,881,2452,4769,1873,597,189,Tag0,unknown
1499246795120,0,121,2.6586914062500003E-5,90,40,38,66193,1932,881,2452,4769,1873,597,189,Tag0,unknown
1499246795120,0,-121,-2.6586914062500003E-5,90,40,38,66193,1932,881,2452,4769,1873,597,189,Tag0,unknown
1499246795121,0,-118,-2.5927734375E-5,90,40,38,66193,1932,881,2452,4769,1873,597,189,Tag0,unknown
1499246795121,0,-127,-2.79052734375E-5,90,40,38,66193,1932,881,2452,4769,1873,597,189,Tag0,unknown
1499246795121,0,118,2.5927734375E-5,90,40,38,66193,1932,881,2452,4769,1873,597,189,Tag0,unknown
1499246795122,0,107,2.35107421875E-5,90,40,38,66193,1932,881,2452,4769,1873,597,189,Tag0,unknown
1499246795122,0,97,2.13134765625E-5,90,40,38,66193,1932,881,2452,4769,1873,597,189,Tag0,unknown
1499246795122,0,92,2.021484375E-5,90,40,38,66193,1932,881,2452,4769,1873,597,189,Tag0,unknown
1499246795123,0,90,1.9775390625E-5,90,40,38,66193,1932,881,2452,4769,1873,597,189,Tag0,unknown
1499246795123,0,85,1.86767578125E-5,90,40,38,66193,1932,881,2452,4769,1873,597,189,Tag0,unknown
1499246795123,0,84,1.8457031250000004E-5,90,40,38,66193,1932,881,2452,4769,1873,597,189,Tag0,unknown
1499246795124,0,92,2.021484375E-5,90,40,38,66193,1932,881,2452,4769,1873,597,189,Tag0,unknown
1499246795124,0,97,2.13134765625E-5,90,40,38,66193,1932,881,2452,4769,1873,597,189,Tag0,unknown
1499246795124,0,86,1.8896484375000003E-5,90,40,38,66193,1932,881,2452,4769,1873,597,189,Tag0,unknown
1499246795125,0,81,1.77978515625E-5,90,40,38,66193,1932,881,2452,4769,1873,597,189,Tag0,unknown
1499246795125,0,81,1.77978515625E-5,90,40,38,66193,1932,881,2452,4769,1873,597,189,Tag0,unknown
1499246795125,0,89,1.95556640625E-5,90,40,38,66193,1932,881,2452,4769,1873,597,189,Tag0,unknown
1499246795126,0,106,2.3291015625000003E-5,90,40,38,66193,1932,881,2452,4769,1873,597,189,Tag0,unknown
1499246795126,0,113,2.48291015625E-5,90,40,38,66193,1932,881,2452,4769,1873,597,189,Tag0,unknown
1499246795127,0,101,2.2192382812500002E-5,90,40,38,66193,1932,881,2452,4769,1873,597,189,Tag0,unknown
1499246795127,0,98,2.1533203125E-5,90,40,38,66193,1932,881,2452,4769,1873,597,189,Tag0,unknown
1499246795128,0,104,2.28515625E-5,90,40,38,66193,1932,881,2452,4769,1873,597,189,Tag0,unknown
1499246795128,0,116,2.548828125E-5,90,40,38,66193,1932,881,2452,4769,1873,597,189,Tag0,unknown
1499246795129,0,123,2.70263671875E-5,90,40,38,66193,1932,881,2452,4769,1873,597,189,Tag0,unknown
1499246795129,0,122,2.6806640625E-5,90,40,38,66193,1932,881,2452,4769,1873,597,189,Tag0,unknown
1499246795130,0,121,2.6586914062500003E-5,90,40,38,66193,1932,881,2452,4769,1873,597,189,Tag0,unknown
1499246795130,0,-121,-2.6586914062500003E-5,90,40,38,66193,1932,881,2452,4769,1873,597,189,Tag0,unknown
1499246795131,0,-107,-2.35107421875E-5,90,40,38,66193,1932,881,2452,4769,1873,597,189,Tag0,unknown
1499246795131,0,-106,-2.3291015625000003E-5,90,40,38,66193,1932,881,2452,4769,1873,597,189,Tag0,unknown
1499246795132,0,-112,-2.4609375E-5,90,40,38,66193,1932,881,2452,4769,1873,597,189,Tag0,unknown
1499246795132,0,-117,-2.5708007812499998E-5,90,40,38,66193,1932,881,2452,4769,1873,597,189,Tag0,unknown
1499246795132,0,-121,-2.6586914062500003E-5,90,40,38,66193,1932,881,2452,4769,1873,597,189,Tag0,unknown
1499246795133,0,-123,-2.70263671875E-5,90,40,38,66193,1932,881,2452,4769,1873,597,189,Tag0,unknown
1499246795133,0,120,2.63671875E-5,90,40,38,66193,1932,881,2452,4769,1873,597,189,Tag0,unknown
1499246795134,0,107,2.35107421875E-5,90,40,38,66193,1932,881,2452,4769,1873,597,189,Tag0,unknown
1499246795134,0,96,2.109375E-5,90,40,38,66193,1932,881,2452,4769,1873,597,189,Tag0,unknown
1499246795134,0,82,1.8017578124999998E-5,90,40,38,66193,1932,881,2452,4769,1873,597,189,Tag0,unknown
1499246795135,0,64,1.40625E-5,90,40,38,66193,1932,881,2452,4769,1873,597,189,Tag0,unknown
1499246795135,0,43,9.448242187500001E-6,90,40,38,66193,1932,881,2452,4769,1873,597,189,Tag0,unknown
1499246795136,0,36,7.91015625E-6,90,40,38,66193,1932,881,2452,4769,1873,597,189,Tag0,unknown
1499246795136,0,28,6.15234375E-6,90,40,38,66193,1932,881,2452,4769,1873,597,189,Tag0,unknown
1499246795137,0,34,7.4707031250000005E-6,90,40,38,66193,1932,881,2452,4769,1873,597,189,Tag0,unknown
1499246795137,0,49,1.07666015625E-5,90,40,38,66193,1932,881,2452,4769,1873,597,189,Tag0,unknown
1499246795137,0,56,1.23046875E-5,90,40,38,66193,1932,881,2452,4769,1873,597,189,Tag0,unknown
1499246795138,0,56,1.23046875E-5,90,40,38,66193,1932,881,2452,4769,1873,597,189,Tag0,unknown
1499246795138,0,50,1.0986328125E-5,90,40,38,66193,1932,881,2452,4769,1873,597,189,Tag0,unknown
1499246795138,0,50,1.0986328125E-5,90,40,38,66193,1932,881,2452,4769,1873,597,189,Tag0,unknown
1499246795139,0,57,1.2524414062500001E-5,90,40,38,66193,1932,881,2452,4769,1873,597,189,Tag0,unknown
1499246795139,0,58,1.2744140625E-5,90,40,38,66193,1932,881,2452,4769,1873,597,189,Tag0,unknown
1499246795139,0,49,1.07666015625E-5,90,40,38,66193,1932,881,2452,4769,1873,597,189,Tag0,unknown
1499246795140,0,37,8.1298828125E-6,90,40,38,66193,1932,881,2452,4769,1873,597,189,Tag0,unknown
1499246795140,0,32,7.03125E-6,90,40,38,66193,1932,881,2452,4769,1873,597,189,Tag0,unknown
1499246795140,0,42,9.228515625000002E-6,90,40,38,66193,1932,881,2452,4769,1873,597,189,Tag0,unknown
1499246795141,0,64,1.40625E-5,90,40,38,66193,1932,881,2452,4769,1873,597,189,Tag0,unknown
1499246795141,0,71,1.56005859375E-5,90,40,38,66193,1932,881,2452,4769,1873,597,189,Tag0,unknown
1499246795141,0,68,1.4941406250000001E-5,90,40,38,66193,1932,881,2452,4769,1873,597,189,Tag0,unknown
1499246795142,0,66,1.4501953125E-5,90,40,38,66193,1932,881,2452,4769,1873,597,189,Tag0,unknown
1499246795142,0,73,1.6040039062500002E-5,90,40,38,66193,1932,881,2452,4769,1873,597,189,Tag0,unknown
1499246795142,0,75,1.64794921875E-5,90,40,38,66193,1932,881,2452,4769,1873,597,189,Tag0,unknown
1499246795143,0,67,1.4721679687500002E-5,90,40,38,66193,1932,881,2452,4769,1873,597,189,Tag0,unknown
1499246795143,0,65,1.42822265625E-5,90,40,38,66193,1932,881,2452,4769,1873,597,189,Tag0,unknown
1499246795143,0,64,1.40625E-5,90,40,38,66193,1932,881,2452,4769,1873,597,189,Tag0,unknown
1499246795143,0,54,1.1865234375000001E-5,90,40,38,66193,1932,881,2452,4769,1873,597,189,Tag0,unknown
1499246795144,0,56,1.23046875E-5,90,40,38,66193,1932,881,2452,4769,1873,597,189,Tag0,unknown
1499246795144,0,74,1.6259765625E-5,90,40,38,66193,1932,881,2452,4769,1873,597,189,Tag0,unknown
1499246795144,0,87,1.91162109375E-5,90,40,38,66193,1932,881,2452,4769,1873,597,189,Tag0,unknown
1499246795145,0,77,1.69189453125E-5,90,40,38,66193,1932,881,2452,4769,1873,597,189,Tag0,unknown
1499246795145,0,65,1.42822265625E-5,90,40,38,66193,1932,881,2452,4769,1873,597,189,Tag0,unknown
1499246795146,0,57,1.2524414062500001E-5,90,40,38,66193,1932,881,2452,4769,1873,597,189,Tag0,unknown
1499246795146,0,50,1.0986328125E-5,90,40,38,66193,1932,881,2452,4769,1873,597,189,Tag0,unknown
1499246795147,0,38,8.349609375E-6,90,40,38,66193,1932,881,2452,4769,1873,597,189,Tag0,unknown
1499246795147,0,43,9.448242187500001E-6,90,40,38,66193,1932,881,2452,4769,1873,597,189,Tag0,unknown
1499246795147,0,65,1.42822265625E-5,90,40,38,66193,1932,881,2452,4769,1873,597,189,Tag0,unknown
1499246795148,0,83,1.82373046875E-5,90,40,38,66193,1932,881,2452,4769,1873,597,189,Tag0,unknown
1499246795148,0,91,1.99951171875E-5,90,40,38,66193,1932,881,2452,4769,1873,597,189,Tag0,unknown
1499246795149,0,89,1.95556640625E-5,90,40,38,66193,1932,881,2452,4769,1873,597,189,Tag0,unknown
1499246795149,0,83,1.82373046875E-5,90,40,38,66193,1932,881,2452,4769,1873,597,189,Tag0,unknown
1499246795149,0,88,1.93359375E-5,90,40,38,66193,1932,881,2452,4769,1873,597,189,Tag0,unknown
1499246795150,0,90,1.9775390625E-5,90,40,38,66193,1932,881,2452,4769,1873,597,189,Tag0,unknown
1499246795150,0,83,1.82373046875E-5,90,40,38,66193,1932,881,2452,4769,1873,597,189,Tag0,unknown
1499246795150,0,71,1.56005859375E-5,90,40,38,66193,1932,881,2452,4769,1873,597,189,Tag0,unknown
1499246795151,0,55,1.20849609375E-5,90,40,38,66193,1932,881,2452,4769,1873,597,189,Tag0,unknown
1499246795151,0,49,1.07666015625E-5,90,40,38,66193,1932,881,2452,4769,1873,597,189,Tag0,unknown
1499246795151,0,56,1.23046875E-5,90,40,38,66193,1932,881,2452,4769,1873,597,189,Tag0,unknown
1499246795152,0,59,1.29638671875E-5,90,40,38,66193,1932,881,2452,4769,1873,597,189,Tag0,unknown
1499246795152,0,45,9.8876953125E-6,90,40,38,66193,1932,881,2452,4769,1873,597,189,Tag0,unknown
1499246795152,0,22,4.833984375E-6,90,40,38,66193,1932,881,2452,4769,1873,597,189,Tag0,unknown
1499246795153,0,16,3.515625E-6,90,40,38,66193,1932,881,2452,4769,1873,597,189,Tag0,unknown
1499246795153,0,27,5.9326171875000005E-6,90,40,38,66193,1932,881,2452,4769,1873,597,189,Tag0,unknown
1499246795153,0,35,7.6904296875E-6,90,40,38,66193,1932,881,2452,4769,1873,597,189,Tag0,unknown
1499246795154,0,25,5.4931640625E-6,90,40,38,66193,1932,881,2452,4769,1873,597,189,Tag0,unknown
1499246795154,0,17,3.7353515625000003E-6,90,40,38,66193,1932,881,2452,4769,1873,597,189,Tag0,unknown
1499246795154,0,19,4.1748046875E-6,90,40,38,66193,1932,881,2452,4769,1873,597,189,Tag0,unknown
1499246795155,0,23,5.0537109375E-6,90,40,38,66193,1932,881,2452,4769,1873,597,189,Tag0,unknown
1499246795155,0,12,2.63671875E-6,90,40,38,66193,1932,881,2452,4769,1873,597,189,Tag0,unknown
1499246795156,0,-257,-5.64697265625E-5,90,40,38,66193,1932,881,2452,4769,1873,597,189,Tag0,unknown
1499246795156,0,-261,-5.73486328125E-5,90,40,38,66193,1932,881,2452,4769,1873,597,189,Tag0,unknown
1499246795157,0,-258,-5.6689453125000004E-5,90,40,38,66193,1932,881,2452,4769,1873,597,189,Tag0,unknown
1499246795157,0,2,4.39453125E-7,90,40,38,66193,1932,881,2452,4769,1873,597,189,Tag0,unknown
1499246795158,0,4,8.7890625E-7,90,40,38,66193,1932,881,2452,4769,1873,597,189,Tag0,unknown
1499246795158,0,5,1.0986328125E-6,90,40,38,66193,1932,881,2452,4769,1873,597,189,Tag0,unknown
1499246795158,0,1,2.197265625E-7,90,40,38,66193,1932,881,2452,4769,1873,597,189,Tag0,unknown
1499246795159,0,-259,-5.69091796875E-5,90,40,38,66193,1932,881,2452,4769,1873,597,189,Tag0,unknown
1499246795159,0,1,2.197265625E-7,90,40,38,66193,1932,881,2452,4769,1873,597,189,Tag0,unknown
1499246795159,0,16,3.515625E-6,90,40,38,66193,1932,881,2452,4769,1873,597,189,Tag0,unknown
1499246795160,0,25,5.4931640625E-6,90,40,38,66193,1932,881,2452,4769,1873,597,189,Tag0,unknown
1499246795160,0,27,5.9326171875000005E-6,90,40,38,66193,1932,881,2452,4769,1873,597,189,Tag0,unknown
1499246795160,0,23,5.0537109375E-6,90,40,38,66193,1932,881,2452,4769,1873,597,189,Tag0,unknown
1499246795160,0,25,5.4931640625E-6,90,40,38,66193,1932,881,2452,4769,1873,597,189,Tag0,unknown
1499246795161,0,39,8.5693359375E-6,90,40,38,66193,1932,881,2452,4769,1873,597,189,Tag0,unknown
1499246795161,0,50,1.0986328125E-5,90,40,38,66193,1932,881,2452,4769,1873,597,189,Tag0,unknown
1499246795161,0,48,1.0546875E-5,90,40,38,66193,1932,881,2452,4769,1873,597,189,Tag0,unknown
1499246795161,0,37,8.1298828125E-6,90,40,38,66193,1932,881,2452,4769,1873,597,189,Tag0,unknown
1499246795162,0,38,8.349609375E-6,90,40,38,66193,1932,881,2452,4769,1873,597,189,Tag0,unknown
1499246795162,0,56,1.23046875E-5,90,40,38,66193,1932,881,2452,4769,1873,597,189,Tag0,unknown
1499246795162,0,77,1.69189453125E-5,90,40,38,66193,1932,881,2452,4769,1873,597,189,Tag0,unknown
1499246795163,0,87,1.91162109375E-5,90,40,38,66193,1932,881,2452,4769,1873,597,189,Tag0,unknown
1499246795163,0,76,1.669921875E-5,90,40,38,66193,1932,881,2452,4769,1873,597,189,Tag0,unknown
1499246795163,0,66,1.4501953125E-5,90,40,38,66193,1932,881,2452,4769,1873,597,189,Tag0,unknown
1499246795163,0,56,1.23046875E-5,90,40,38,66193,1932,881,2452,4769,1873,597,189,Tag0,unknown
1499246795164,0,57,1.2524414062500001E-5,90,40,38,66193,1932,881,2452,4769,1873,597,189,Tag0,unknown
1499246795164,0,66,1.4501953125E-5,90,40,38,66193,1932,881,2452,4769,1873,597,189,Tag0,unknown
1499246795164,0,64,1.40625E-5,90,40,38,66193,1932,881,2452,4769,1873,597,189,Tag0,unknown
1499246795164,0,55,1.20849609375E-5,90,40,38,66193,1932,881,2452,4769,1873,597,189,Tag0,unknown
1499246795165,0,56,1.23046875E-5,90,40,38,66193,1932,881,2452,4769,1873,597,189,Tag0,unknown
1499246795165,0,64,1.40625E-5,90,40,38,66193,1932,881,2452,4769,1873,597,189,Tag0,unknown
1499246795165,0,69,1.51611328125E-5,90,40,38,66193,1932,881,2452,4769,1873,597,189,Tag0,unknown
1499246795166,0,67,1.4721679687500002E-5,90,40,38,66193,1932,881,2452,4769,1873,597,189,Tag0,unknown
1499246795166,0,53,1.1645507812500002E-5,90,40,38,66193,1932,881,2452,4769,1873,597,189,Tag0,unknown
1499246795166,0,42,9.228515625000002E-6,90,40,38,66193,1932,881,2452,4769,1873,597,189,Tag0,unknown
1499246795167,0,44,9.66796875E-6,90,40,38,66193,1932,881,2452,4769,1873,597,189,Tag0,unknown
1499246795167,0,66,1.4501953125E-5,90,40,38,66193,1932,881,2452,4769,1873,597,189,Tag0,unknown
1499246795167,0,70,1.5380859375E-5,90,40,38,66193,1932,881,2452,4769,1873,597,189,Tag0,unknown
1499246795168,0,61,1.34033203125E-5,90,40,38,66193,1932,881,2452,4769,1873,597,189,Tag0,unknown
1499246795168,0,65,1.42822265625E-5,90,40,38,66193,1932,881,2452,4769,1873,597,189,Tag0,unknown
1499246795168,0,77,1.69189453125E-5,90,40,38,66193,1932,881,2452,4769,1873,597,189,Tag0,unknown
1499246795168,0,93,2.04345703125E-5,90,40,38,66193,1932,881,2452,4769,1873,597,189,Tag0,unknown
1499246795169,0,101,2.2192382812500002E-5,90,40,38,66193,1932,881,2452,4769,1873,597,189,Tag0,unknown
1499246795169,0,104,2.28515625E-5,90,40,38,66193,1932,881,2452,4769,1873,597,189,Tag0,unknown
1499246795169,0,105,2.30712890625E-5,90,40,38,66193,1932,881,2452,4769,1873,597,189,Tag0,unknown
1499246795170,0,107,2.35107421875E-5,90,40,38,66193,1932,881,2452,4769,1873,597,189,Tag0,unknown
1499246795170,0,108,2.3730468750000002E-5,90,40,38,66193,1932,881,2452,4769,1873,597,189,Tag0,unknown
1499246795170,0,114,2.5048828125000003E-5,90,40,38,66193,1932,881,2452,4769,1873,597,189,Tag0,unknown
1499246795170,0,114,2.5048828125000003E-5,90,40,38,66193,1932,881,2452,4769,1873,597,189,Tag0,unknown
1499246795171,0,113,2.48291015625E-5,90,40,38,66193,1932,881,2452,4769,1873,597,189,Tag0,unknown
1499246795171,0,106,2.3291015625000003E-5,90,40,38,66193,1932,881,2452,4769,1873,597,189,Tag0,unknown
1499246795171,0,98,2.1533203125E-5,90,40,38,66193,1932,881,2452,4769,1873,597,189,Tag0,unknown
1499246795172,0,86,1.8896484375000003E-5,90,40,38,66193,1932,881,2452,4769,1873,597,189,Tag0,unknown
1499246795172,0,86,1.8896484375000003E-5,90,40,38,66193,1932,881,2452,4769,1873,597,189,Tag0,unknown
1499246795172,0,99,2.1752929687500003E-5,90,40,38,66193,1932,881,2452,4769,1873,597,189,Tag0,unknown
1499246795172,0,102,2.2412109374999998E-5,90,40,38,66193,1932,881,2452,4769,1873,597,189,Tag0,unknown
1499246795173,0,88,1.93359375E-5,90,40,38,66193,1932,881,2452,4769,1873,597,189,Tag0,unknown
1499246795173,0,70,1.5380859375E-5,90,40,38,66193,1932,881,2452,4769,1873,597,189,Tag0,unknown
1499246795173,0,57,1.2524414062500001E-5,90,40,38,66193,1932,881,2452,4769,1873,597,189,Tag0,unknown
1499246795173,0,67,1.4721679687500002E-5,90,40,38,66193,1932,881,2452,4769,1873,597,189,Tag0,unknown
1499246795174,0,96,2.109375E-5,90,40,38,66193,1932,881,2452,4769,1873,597,189,Tag0,unknown
1499246795174,0,115,2.52685546875E-5,90,40,38,66193,1932,881,2452,4769,1873,597,189,Tag0,unknown
1499246795174,0,101,2.2192382812500002E-5,90,40,38,66193,1932,881,2452,4769,1873,597,189,Tag0,unknown
1499246795175,0,77,1.69189453125E-5,90,40,38,66193,1932,881,2452,4769,1873,597,189,Tag0,unknown
1499246795177,0,69,1.51611328125E-5,90,40,38,66193,1932,881,2452,4769,1873,597,189,Tag0,unknown
1499246795178,0,81,1.77978515625E-5,90,40,38,66193,1932,881,2452,4769,1873,597,189,Tag0,unknown
1499246795178,0,102,2.2412109374999998E-5,90,40,38,66193,1932,881,2452,4769,1873,597,189,Tag0,unknown
1499246795178,0,106,2.3291015625000003E-5,90,40,38,66193,1932,881,2452,4769,1873,597,189,Tag0,unknown
1499246795178,0,97,2.13134765625E-5,90,40,38,66193,1932,881,2452,4769,1873,597,189,Tag0,unknown
1499246795179,0,90,1.9775390625E-5,90,40,38,66193,1932,881,2452,4769,1873,597,189,Tag0,unknown
1499246795179,0,100,2.197265625E-5,90,40,38,66193,1932,881,2452,4769,1873,597,189,Tag0,unknown
1499246795179,0,100,2.197265625E-5,90,40,38,66193,1932,881,2452,4769,1873,597,189,Tag0,unknown
1499246795180,0,88,1.93359375E-5,90,40,38,66193,1932,881,2452,4769,1873,597,189,Tag0,unknown
1499246795180,0,76,1.669921875E-5,90,40,38,66193,1932,881,2452,4769,1873,597,189,Tag0,unknown
1499246795180,0,72,1.58203125E-5,90,40,38,66193,1932,881,2452,4769,1873,597,189,Tag0,unknown
1499246795180,0,66,1.4501953125E-5,90,40,38,66193,1932,881,2452,4769,1873,597,189,Tag0,unknown
1499246795181,0,54,1.1865234375000001E-5,90,40,38,66193,1932,881,2452,4769,1873,597,189,Tag0,unknown
1499246795181,0,41,9.008789062499999E-6,90,40,38,66193,1932,881,2452,4769,1873,597,189,Tag0,unknown
1499246795181,0,33,7.2509765625E-6,90,40,38,66193,1932,881,2452,4769,1873,597,189,Tag0,unknown
1499246795182,0,24,5.2734375E-6,90,40,38,66193,1932,881,2452,4769,1873,597,189,Tag0,unknown
1499246795182,0,27,5.9326171875000005E-6,90,40,38,66193,1932,881,2452,4769,1873,597,189,Tag0,unknown
1499246795182,0,38,8.349609375E-6,90,40,38,66193,1932,881,2452,4769,1873,597,189,Tag0,unknown
1499246795183,0,41,9.008789062499999E-6,90,40,38,66193,1932,881,2452,4769,1873,597,189,Tag0,unknown
1499246795183,0,35,7.6904296875E-6,90,40,38,66193,1932,881,2452,4769,1873,597,189,Tag0,unknown
1499246795183,0,23,5.0537109375E-6,90,40,38,66193,1932,881,2452,4769,1873,597,189,Tag0,unknown
1499246795184,0,22,4.833984375E-6,90,40,38,66193,1932,881,2452,4769,1873,597,189,Tag0,unknown
1499246795184,0,38,8.349609375E-6,90,40,38,66193,1932,881,2452,4769,1873,597,189,Tag0,unknown
1499246795184,0,52,1.142578125E-5,90,40,38,66193,1932,881,2452,4769,1873,597,189,Tag0,unknown
1499246795185,0,56,1.23046875E-5,90,40,38,66193,1932,881,2452,4769,1873,597,189,Tag0,unknown
1499246795185,0,54,1.1865234375000001E-5,90,40,38,66193,1932,881,2452,4769,1873,597,189,Tag0,unknown
1499246795185,0,60,1.318359375E-5,90,40,38,66193,1932,881,2452,4769,1873,597,189,Tag0,unknown
1499246795186,0,70,1.5380859375E-5,90,40,38,66193,1932,881,2452,4769,1873,597,189,Tag0,unknown
1499246795186,0,58,1.2744140625E-5,90,40,38,66193,1932,881,2452,4769,1873,597,189,Tag0,unknown
1499246795186,0,42,9.228515625000002E-6,90,40,38,66193,1932,881,2452,4769,1873,597,189,Tag0,unknown
1499246795187,0,34,7.4707031250000005E-6,90,40,38,66193,1932,881,2452,4769,1873,597,189,Tag0,unknown
1499246795187,0,42,9.228515625000002E-6,90,40,38,66193,1932,881,2452,4769,1873,597,189,Tag0,unknown
1499246795187,0,57,1.2524414062500001E-5,90,40,38,66193,1932,881,2452,4769,1873,597,189,Tag0,unknown
1499246795187,0,59,1.29638671875E-5,90,40,38,66193,1932,881,2452,4769,1873,597,189,Tag0,unknown
1499246795188,0,51,1.1206054687499999E-5,90,40,38,66193,1932,881,2452,4769,1873,597,189,Tag0,unknown
1499246795188,0,49,1.07666015625E-5,90,40,38,66193,1932,881,2452,4769,1873,597,189,Tag0,unknown
1499246795188,0,51,1.1206054687499999E-5,90,40,38,66193,1932,881,2452,4769,1873,597,189,Tag0,unknown
1499246795189,0,54,1.1865234375000001E-5,90,40,38,66193,1932,881,2452,4769,1873,597,189,Tag0,unknown
1499246795189,0,66,1.4501953125E-5,90,40,38,66193,1932,881,2452,4769,1873,597,189,Tag0,unknown
1499246795189,0,75,1.64794921875E-5,90,40,38,66193,1932,881,2452,4769,1873,597,189,Tag0,unknown
1499246795189,0,71,1.56005859375E-5,90,40,38,66193,1932,881,2452,4769,1873,597,189,Tag0,unknown
1499246795190,0,51,1.1206054687499999E-5,90,40,38,66193,1932,881,2452,4769,1873,597,189,Tag0,unknown
1499246795190,0,37,8.1298828125E-6,90,40,38,66193,1932,881,2452,4769,1873,597,189,Tag0,unknown
1499246795190,0,40,8.7890625E-6,90,40,38,66193,1932,881,2452,4769,1873,597,189,Tag0,unknown
1499246795190,0,27,5.9326171875000005E-6,90,40,38,66193,1932,881,2452,4769,1873,597,189,Tag0,unknown
1499246795191,0,11,2.4169921875E-6,90,40,38,66193,1932,881,2452,4769,1873,597,189,Tag0,unknown
1499246795191,0,24,5.2734375E-6,90,40,38,66193,1932,881,2452,4769,1873,597,189,Tag0,unknown
1499246795191,0,44,9.66796875E-6,90,40,38,66193,1932,881,2452,4769,1873,597,189,Tag0,unknown
1499246795191,0,50,1.0986328125E-5,90,40,38,66193,1932,881,2452,4769,1873,597,189,Tag0,unknown
1499246795192,0,44,9.66796875E-6,90,40,38,66193,1932,881,2452,4769,1873,597,189,Tag0,unknown
1499246795192,0,42,9.228515625000002E-6,90,40,38,66193,1932,881,2452,4769,1873,597,189,Tag0,unknown
1499246795192,0,40,8.7890625E-6,90,40,38,66193,1932,881,2452,4769,1873,597,189,Tag0,unknown
1499246795193,0,42,9.228515625000002E-6,90,40,38,66193,1932,881,2452,4769,1873,597,189,Tag0,unknown
1499246795193,0,52,1.142578125E-5,90,40,38,66193,1932,881,2452,4769,1873,597,189,Tag0,unknown
1499246795193,0,66,1.4501953125E-5,90,40,38,66193,1932,881,2452,4769,1873,597,189,Tag0,unknown
1499246795193,0,70,1.5380859375E-5,90,40,38,66193,1932,881,2452,4769,1873,597,189,Tag0,unknown
1499246795194,0,68,1.4941406250000001E-5,90,40,38,66193,1932,881,2452,4769,1873,597,189,Tag0,unknown
1499246795194,0,73,1.6040039062500002E-5,90,40,38,66193,1932,881,2452,4769,1873,597,189,Tag0,unknown
1499246795194,0,85,1.86767578125E-5,90,40,38,66193,1932,881,2452,4769,1873,597,189,Tag0,unknown
1499246795194,0,86,1.8896484375000003E-5,90,40,38,66193,1932,881,2452,4769,1873,597,189,Tag0,unknown
1499246795195,0,82,1.8017578124999998E-5,90,40,38,66193,1932,881,2452,4769,1873,597,189,Tag0,unknown
1499246795195,0,80,1.7578125E-5,90,40,38,66193,1932,881,2452,4769,1873,597,189,Tag0,unknown
1499246795195,0,83,1.82373046875E-5,90,40,38,66193,1932,881,2452,4769,1873,597,189,Tag0,unknown
1499246795196,0,92,2.021484375E-5,90,40,38,66193,1932,881,2452,4769,1873,597,189,Tag0,unknown
1499246795196,0,90,1.9775390625E-5,90,40,38,66193,1932,881,2452,4769,1873,597,189,Tag0,unknown
1499246795197,0,71,1.56005859375E-5,90,40,38,66193,1932,881,2452,4769,1873,597,189,Tag0,unknown
1499246795197,0,53,1.1645507812500002E-5,90,40,38,66193,1932,881,2452,4769,1873,597,189,Tag0,unknown
1499246795197,0,38,8.349609375E-6,90,40,38,66193,1932,881,2452,4769,1873,597,189,Tag0,unknown
1499246795197,0,28,6.15234375E-6,90,40,38,66193,1932,881,2452,4769,1873,597,189,Tag0,unknown
1499246795198,0,26,5.712890625E-6,90,40,38,66193,1932,881,2452,4769,1873,597,189,Tag0,unknown
1499246795198,0,32,7.03125E-6,90,40,38,66193,1932,881,2452,4769,1873,597,189,Tag0,unknown
1499246795198,0,40,8.7890625E-6,90,40,38,66193,1932,881,2452,4769,1873,597,189,Tag0,unknown
1499246795198,0,48,1.0546875E-5,90,40,38,66193,1932,881,2452,4769,1873,597,189,Tag0,unknown
1499246795199,0,49,1.07666015625E-5,90,40,38,66193,1932,881,2452,4769,1873,597,189,Tag0,unknown
1499246795199,0,53,1.1645507812500002E-5,90,40,38,66193,1932,881,2452,4769,1873,597,189,Tag0,unknown
1499246795199,0,53,1.1645507812500002E-5,90,40,38,66193,1932,881,2452,4769,1873,597,189,Tag0,unknown
1499246795199,0,50,1.0986328125E-5,90,40,38,66193,1932,881,2452,4769,1873,597,189,Tag0,unknown
1499246795200,0,44,9.66796875E-6,90,40,38,66193,1932,881,2452,4769,1873,597,189,Tag0,unknown
1499246795200,0,44,9.66796875E-6,90,40,38,66193,1932,881,2452,4769,1873,597,189,Tag0,unknown
1499246795200,0,55,1.20849609375E-5,90,40,38,66193,1932,881,2452,4769,1873,597,189,Tag0,unknown
1499246795200,0,64,1.40625E-5,90,40,38,66193,1932,881,2452,4769,1873,597,189,Tag0,unknown
1499246795200,0,71,1.56005859375E-5,90,40,38,66193,1932,881,2452,4769,1873,597,189,Tag0,unknown
1499246795201,0,96,2.109375E-5,90,40,38,66193,1932,881,2452,4769,1873,597,189,Tag0,unknown
1499246795201,0,116,2.548828125E-5,90,40,38,66193,1932,881,2452,4769,1873,597,189,Tag0,unknown
1499246795202,0,115,2.52685546875E-5,90,40,38,66193,1932,881,2452,4769,1873,597,189,Tag0,unknown
1499246795202,0,96,2.109375E-5,90,40,38,66193,1932,881,2452,4769,1873,597,189,Tag0,unknown
1499246795203,0,81,1.77978515625E-5,90,40,38,66193,1932,881,2452,4769,1873,597,189,Tag0,unknown
1499246795203,0,84,1.8457031250000004E-5,90,40,38,66193,1932,881,2452,4769,1873,597,189,Tag0,unknown
1499246795203,0,104,2.28515625E-5,90,40,38,66193,1932,881,2452,4769,1873,597,189,Tag0,unknown
1499246795203,0,116,2.548828125E-5,90,40,38,66193,1932,881,2452,4769,1873,597,189,Tag0,unknown
1499246795204,0,116,2.548828125E-5,90,40,38,66193,1932,881,2452,4769,1873,597,189,Tag0,unknown
1499246795204,0,103,2.26318359375E-5,90,40,38,66193,1932,881,2452,4769,1873,597,189,Tag0,unknown
1499246795205,0,92,2.021484375E-5,90,40,38,66193,1932,881,2452,4769,1873,597,189,Tag0,unknown
1499246795205,0,88,1.93359375E-5,90,40,38,66193,1932,881,2452,4769,1873,597,189,Tag0,unknown
1499246795205,0,85,1.86767578125E-5,90,40,38,66193,1932,881,2452,4769,1873,597,189,Tag0,unknown
1499246795206,0,81,1.77978515625E-5,90,40,38,66193,1932,881,2452,4769,1873,597,189,Tag0,unknown
1499246795209,0,73,1.6040039062500002E-5,90,40,38,66193,1932,881,2452,4769,1873,597,189,Tag0,unknown
1499246795210,0,64,1.40625E-5,90,40,38,66193,1932,881,2452,4769,1873,597,189,Tag0,unknown
1499246795211,0,59,1.29638671875E-5,90,40,38,66193,1932,881,2452,4769,1873,597,189,Tag0,unknown
1499246795211,0,64,1.40625E-5,90,40,38,66193,1932,881,2452,4769,1873,597,189,Tag0,unknown
1499246795211,0,70,1.5380859375E-5,90,40,38,66193,1932,881,2452,4769,1873,597,189,Tag0,unknown
1499246795211,0,68,1.4941406250000001E-5,90,40,38,66193,1932,881,2452,4769,1873,597,189,Tag0,unknown
1499246795214,0,51,1.1206054687499999E-5,90,40,38,66193,1932,881,2452,4769,1873,597,189,Tag0,unknown
1499246795214,0,36,7.91015625E-6,90,40,38,66193,1932,881,2452,4769,1873,597,189,Tag0,unknown
1499246795215,0,38,8.349609375E-6,90,40,38,66193,1932,881,2452,4769,1873,597,189,Tag0,unknown
1499246795215,0,48,1.0546875E-5,90,40,38,66193,1932,881,2452,4769,1873,597,189,Tag0,unknown
1499246795215,0,41,9.008789062499999E-6,90,40,38,66193,1932,881,2452,4769,1873,597,189,Tag0,unknown
1499246795217,0,26,5.712890625E-6,90,40,38,66193,1932,881,2452,4769,1873,597,189,Tag0,unknown
1499246795217,0,26,5.712890625E-6,90,40,38,66193,1932,881,2452,4769,1873,597,189,Tag0,unknown
1499246795218,0,40,8.7890625E-6,90,40,38,66193,1932,881,2452,4769,1873,597,189,Tag0,unknown
1499246795218,0,50,1.0986328125E-5,90,40,38,66193,1932,881,2452,4769,1873,597,189,Tag0,unknown
1499246795218,0,52,1.142578125E-5,90,40,38,66193,1932,881,2452,4769,1873,597,189,Tag0,unknown
1499246795218,0,51,1.1206054687499999E-5,90,40,38,66193,1932,881,2452,4769,1873,597,189,Tag0,unknown
1499246795218,0,53,1.1645507812500002E-5,90,40,38,66193,1932,881,2452,4769,1873,597,189,Tag0,unknown
1499246795218,0,60,1.318359375E-5,90,40,38,66193,1932,881,2452,4769,1873,597,189,Tag0,unknown
1499246795219,0,68,1.4941406250000001E-5,90,40,38,66193,1932,881,2452,4769,1873,597,189,Tag0,unknown
1499246795219,0,74,1.6259765625E-5,90,40,38,66193,1932,881,2452,4769,1873,597,189,Tag0,unknown
1499246795219,0,76,1.669921875E-5,90,40,38,66193,1932,881,2452,4769,1873,597,189,Tag0,unknown
1499246795219,0,96,2.109375E-5,90,40,38,66193,1932,881,2452,4769,1873,597,189,Tag0,unknown
1499246795219,0,108,2.3730468750000002E-5,90,40,38,66193,1932,881,2452,4769,1873,597,189,Tag0,unknown
1499246795219,0,96,2.109375E-5,90,40,38,66193,1932,881,2452,4769,1873,597,189,Tag0,unknown
1499246795220,0,83,1.82373046875E-5,90,40,38,66193,1932,881,2452,4769,1873,597,189,Tag0,unknown
1499246795220,0,83,1.82373046875E-5,90,40,38,66193,1932,881,2452,4769,1873,597,189,Tag0,unknown
1499246795220,0,76,1.669921875E-5,90,40,38,66193,1932,881,2452,4769,1873,597,189,Tag0,unknown
1499246795220,0,65,1.42822265625E-5,90,40,38,66193,1932,881,2452,4769,1873,597,189,Tag0,unknown
1499246795220,0,56,1.23046875E-5,90,40,38,66193,1932,881,2452,4769,1873,597,189,Tag0,unknown
1499246795220,0,56,1.23046875E-5,90,40,38,66193,1932,881,2452,4769,1873,597,189,Tag0,unknown
1499246795221,0,56,1.23046875E-5,90,40,38,66193,1932,881,2452,4769,1873,597,189,Tag0,unknown
1499246795221,0,56,1.23046875E-5,90,40,38,66193,1932,881,2452,4769,1873,597,189,Tag0,unknown
1499246795221,0,48,1.0546875E-5,90,40,38,66193,1932,881,2452,4769,1873,597,189,Tag0,unknown
1499246795221,0,32,7.03125E-6,90,40,38,66193,1932,881,2452,4769,1873,597,189,Tag0,unknown
1499246795221,0,26,5.712890625E-6,90,40,38,66193,1932,881,2452,4769,1873,597,189,Tag0,unknown
1499246795228,0,35,7.6904296875E-6,90,40,38,66193,1932,881,2452,4769,1873,597,189,Tag0,unknown
1499246795229,0,41,9.008789062499999E-6,90,40,38,66193,1932,881,2452,4769,1873,597,189,Tag0,unknown
1499246795229,0,38,8.349609375E-6,90,40,38,66193,1932,881,2452,4769,1873,597,189,Tag0,unknown
1499246795229,0,35,7.6904296875E-6,90,40,38,66193,1932,881,2452,4769,1873,597,189,Tag0,unknown
1499246795229,0,33,7.2509765625E-6,90,40,38,66193,1932,881,2452,4769,1873,597,189,Tag0,unknown
1499246795230,0,33,7.2509765625E-6,90,40,38,66193,1932,881,2452,4769,1873,597,189,Tag0,unknown
1499246795230,0,34,7.4707031250000005E-6,90,40,38,66193,1932,881,2452,4769,1873,597,189,Tag0,unknown
