timestampMs,poorSignal,eegRawValue,eegRawValueVolts,attention,meditation,blinkStrength,delta,theta,alphaLow,alphaHigh,betaLow,betaHigh,gammaLow,gammaMid,tagEvent,location
1499246329835,0,25,5.4931640625E-6,38,23,46,26405,3695,3549,3135,986,1558,490,204,Tag0,unknown
1499246329835,0,23,5.0537109375E-6,38,23,46,26405,3695,3549,3135,986,1558,490,204,Tag0,unknown
1499246329840,0,26,5.712890625E-6,38,23,46,26405,3695,3549,3135,986,1558,490,204,Tag0,unknown
1499246329841,0,32,7.03125E-6,38,23,46,26405,3695,3549,3135,986,1558,490,204,Tag0,unknown
1499246329841,0,33,7.2509765625E-6,38,23,46,26405,3695,3549,3135,986,1558,490,204,Tag0,unknown
1499246329841,0,43,9.448242187500001E-6,38,23,46,26405,3695,3549,3135,986,1558,490,204,Tag0,unknown
1499246329842,0,61,1.34033203125E-5,38,23,46,26405,3695,3549,3135,986,1558,490,204,Tag0,unknown
1499246329842,0,65,1.42822265625E-5,38,23,46,26405,3695,3549,3135,986,1558,490,204,Tag0,unknown
1499246329842,0,48,1.0546875E-5,38,23,46,26405,3695,3549,3135,986,1558,490,204,Tag0,unknown
1499246329842,0,32,7.03125E-6,38,23,46,26405,3695,3549,3135,986,1558,490,204,Tag0,unknown
1499246329843,0,36,7.91015625E-6,38,23,46,26405,3695,3549,3135,986,1558,490,204,Tag0,unknown
1499246329843,0,40,8.7890625E-6,38,23,46,26405,3695,3549,3135,986,1558,490,204,Tag0,unknown
1499246329843,0,44,9.66796875E-6,38,23,46,26405,3695,3549,3135,986,1558,490,204,Tag0,unknown
1499246329844,0,50,1.0986328125E-5,38,23,46,26405,3695,3549,3135,986,1558,490,204,Tag0,unknown
1499246329844,0,42,9.228515625000002E-6,38,23,46,26405,3695,3549,3135,986,1558,490,204,Tag0,unknown
1499246329844,0,36,7.91015625E-6,38,23,46,26405,3695,3549,3135,986,1558,490,204,Tag0,unknown
1499246329845,0,38,8.349609375E-6,38,23,46,26405,3695,3549,3135,986,1558,490,204,Tag0,unknown
1499246329845,0,43,9.448242187500001E-6,38,23,46,26405,3695,3549,3135,986,1558,490,204,Tag0,unknown
1499246329845,0,39,8.5693359375E-6,38,23,46,26405,3695,3549,3135,986,1558,490,204,Tag0,unknown
1499246329846,0,38,8.349609375E-6,38,23,46,26405,3695,3549,3135,986,1558,490,204,Tag0,unknown
1499246329846,0,42,9.228515625000002E-6,38,23,46,26405,3695,3549,3135,986,1558,490,204,Tag0,unknown
1499246329846,0,41,9.008789062499999E-6,38,23,46,26405,3695,3549,3135,986,1558,490,204,Tag0,unknown
1499246329847,0,27,5.9326171875000005E-6,38,23,46,26405,3695,3549,3135,986,1558,490,204,Tag0,unknown
1499246329847,0,9,1.9775390625E-6,38,23,46,26405,3695,3549,3135,986,1558,490,204,Tag0,unknown
1499246329847,0,4,8.7890625E-7,38,23,46,26405,3695,3549,3135,986,1558,490,204,Tag0,unknown
1499246329847,0,-258,-5.6689453125000004E-5,38,23,46,26405,3695,3549,3135,986,1558,490,204,Tag0,unknown
1499246329848,0,-276,-6.064453125E-5,38,23,46,26405,3695,3549,3135,986,1558,490,204,Tag0,unknown
1499246329848,0,-285,-6.26220703125E-5,38,23,46,26405,3695,3549,3135,986,1558,490,204,Tag0,unknown
1499246329848,0,-292,-6.416015625000001E-5,38,23,46,26405,3695,3549,3135,986,1558,490,204,Tag0,unknown
1499246329849,0,-297,-6.525878906250001E-5,38,23,46,26405,3695,3549,3135,986,1558,490,204,Tag0,unknown
1499246329849,0,-298,-6.5478515625E-5,38,23,46,26405,3695,3549,3135,986,1558,490,204,Tag0,unknown
1499246329849,0,-279,-6.13037109375E-5,38,23,46,26405,3695,3549,3135,986,1558,490,204,Tag0,unknown
1499246329850,0,-260,-5.712890625E-5,38,23,46,26405,3695,3549,3135,986,1558,490,204,Tag0,unknown
1499246329850,0,-258,-5.6689453125000004E-5,38,23,46,26405,3695,3549,3135,986,1558,490,204,Tag0,unknown
1499246329850,0,3,6.591796875E-7,38,23,46,26405,3695,3549,3135,986,1558,490,204,Tag0,unknown
1499246329851,0,-259,-5.69091796875E-5,38,23,46,26405,3695,3549,3135,986,1558,490,204,Tag0,unknown
1499246329851,0,-269,-5.9106445312499996E-5,38,23,46,26405,3695,3549,3135,986,1558,490,204,Tag0,unknown
1499246329851,0,0,0.0,38,23,46,26405,3695,3549,3135,986,1558,490,204,Tag0,unknown
1499246329851,0,12,2.63671875E-6,38,23,46,26405,3695,3549,3135,986,1558,490,204,Tag0,unknown
1499246329852,0,9,1.9775390625E-6,38,23,46,26405,3695,3549,3135,986,1558,490,204,Tag0,unknown
1499246329861,0,-263,-5.7788085937500005E-5,38,23,46,26405,3695,3549,3135,986,1558,490,204,Tag0,unknown
1499246329862,0,-289,-6.35009765625E-5,38,23,46,26405,3695,3549,3135,986,1558,490,204,Tag0,unknown
1499246329862,0,-291,-6.39404296875E-5,38,23,46,26405,3695,3549,3135,986,1558,490,204,Tag0,unknown
1499246329862,0,-263,-5.7788085937500005E-5,38,23,46,26405,3695,3549,3135,986,1558,490,204,Tag0,unknown
1499246329863,0,16,3.515625E-6,38,23,46,26405,3695,3549,3135,986,1558,490,204,Tag0,unknown
1499246329863,0,20,4.39453125E-6,38,23,46,26405,3695,3549,3135,986,1558,490,204,Tag0,unknown
1499246329863,0,16,3.515625E-6,38,23,46,26405,3695,3549,3135,986,1558,490,204,Tag0,unknown
1499246329863,0,19,4.1748046875E-6,38,23,46,26405,3695,3549,3135,986,1558,490,204,Tag0,unknown
1499246329864,0,26,5.712890625E-6,38,23,46,26405,3695,3549,3135,986,1558,490,204,Tag0,unknown
1499246329864,0,28,6.15234375E-6,38,23,46,26405,3695,3549,3135,986,1558,490,204,Tag0,unknown
1499246329864,0,12,2.63671875E-6,38,23,46,26405,3695,3549,3135,986,1558,490,204,Tag0,unknown
1499246329865,0,-274,-6.0205078124999997E-5,38,23,46,26405,3695,3549,3135,986,1558,490,204,Tag0,unknown
1499246329865,0,-283,-6.218261718750001E-5,38,23,46,26405,3695,3549,3135,986,1558,490,204,Tag0,unknown
1499246329865,0,-281,-6.17431640625E-5,38,23,46,26405,3695,3549,3135,986,1558,490,204,Tag0,unknown
1499246329866,0,-274,-6.0205078124999997E-5,38,23,46,26405,3695,3549,3135,986,1558,490,204,Tag0,unknown
1499246329866,0,-257,-5.64697265625E-5,38,23,46,26405,3695,3549,3135,986,1558,490,204,Tag0,unknown
1499246329866,0,17,3.7353515625000003E-6,38,23,46,26405,3695,3549,3135,986,1558,490,204,Tag0,unknown
1499246329867,0,19,4.1748046875E-6,38,23,46,26405,3695,3549,3135,986,1558,490,204,Tag0,unknown
1499246329867,0,10,2.197265625E-6,38,23,46,26405,3695,3549,3135,986,1558,490,204,Tag0,unknown
1499246329867,0,-257,-5.64697265625E-5,38,23,46,26405,3695,3549,3135,986,1558,490,204,Tag0,unknown
1499246329868,0,5,1.0986328125E-6,38,23,46,26405,3695,3549,3135,986,1558,490,204,Tag0,unknown
1499246329868,0,23,5.0537109375E-6,38,23,46,26405,3695,3549,3135,986,1558,490,204,Tag0,unknown
1499246329868,0,38,8.349609375E-6,38,23,46,26405,3695,3549,3135,986,1558,490,204,Tag0,unknown
1499246329869,0,53,1.1645507812500002E-5,38,23,46,26405,3695,3549,3135,986,1558,490,204,Tag0,unknown
1499246329869,0,51,1.1206054687499999E-5,38,23,46,26405,3695,3549,3135,986,1558,490,204,Tag0,unknown
1499246329869,0,25,5.4931640625E-6,38,23,46,26405,3695,3549,3135,986,1558,490,204,Tag0,unknown
1499246329870,0,5,1.0986328125E-6,38,23,46,26405,3695,3549,3135,986,1558,490,204,Tag0,unknown
1499246329870,0,21,4.614257812500001E-6,38,23,46,26405,3695,3549,3135,986,1558,490,204,Tag0,unknown
1499246329870,0,50,1.0986328125E-5,38,23,46,26405,3695,3549,3135,986,1558,490,204,Tag0,unknown
1499246329871,0,39,8.5693359375E-6,38,23,46,26405,3695,3549,3135,986,1558,490,204,Tag0,unknown
1499246329914,0,9,1.9775390625E-6,38,23,46,26405,3695,3549,3135,986,1558,490,204,Tag0,unknown
1499246329915,0,-259,-5.69091796875E-5,38,23,46,26405,3695,3549,3135,986,1558,490,204,Tag0,unknown
1499246329915,0,3,6.591796875E-7,38,23,46,26405,3695,3549,3135,986,1558,490,204,Tag0,unknown
1499246329927,0,17,3.7353515625000003E-6,38,23,46,26405,3695,3549,3135,986,1558,490,204,Tag0,unknown
1499246329928,0,32,7.03125E-6,38,23,46,26405,3695,3549,3135,986,1558,490,204,Tag0,unknown
1499246329929,0,40,8.7890625E-6,38,23,46,26405,3695,3549,3135,986,1558,490,204,Tag0,unknown
1499246329930,0,43,9.448242187500001E-6,38,23,46,26405,3695,3549,3135,986,1558,490,204,Tag0,unknown
1499246329931,0,60,1.318359375E-5,38,23,46,26405,3695,3549,3135,986,1558,490,204,Tag0,unknown
1499246329931,0,81,1.77978515625E-5,38,23,46,26405,3695,3549,3135,986,1558,490,204,Tag0,unknown
1499246329932,0,83,1.82373046875E-5,38,23,46,26405,3695,3549,3135,986,1558,490,204,Tag0,unknown
1499246329933,0,75,1.64794921875E-5,38,23,46,26405,3695,3549,3135,986,1558,490,204,Tag0,unknown
1499246329934,0,87,1.91162109375E-5,38,23,46,26405,3695,3549,3135,986,1558,490,204,Tag0,unknown
1499246329935,0,106,2.3291015625000003E-5,38,23,46,26405,3695,3549,3135,986,1558,490,204,Tag0,unknown
1499246329936,0,89,1.95556640625E-5,38,23,46,26405,3695,3549,3135,986,1558,490,204,Tag0,unknown
1499246329942,0,66,1.4501953125E-5,38,23,46,26405,3695,3549,3135,986,1558,490,204,Tag0,unknown
1499246329943,0,67,1.4721679687500002E-5,38,23,46,26405,3695,3549,3135,986,1558,490,204,Tag0,unknown
1499246329943,0,67,1.4721679687500002E-5,38,23,46,26405,3695,3549,3135,986,1558,490,204,Tag0,unknown
1499246329943,0,41,9.008789062499999E-6,38,23,46,26405,3695,3549,3135,986,1558,490,204,Tag0,unknown
1499246329944,0,35,7.6904296875E-6,38,23,46,26405,3695,3549,3135,986,1558,490,204,Tag0,unknown
1499246329944,0,40,8.7890625E-6,38,23,46,26405,3695,3549,3135,986,1558,490,204,Tag0,unknown
1499246329944,0,49,1.07666015625E-5,38,23,46,26405,3695,3549,3135,986,1558,490,204,Tag0,unknown
1499246329945,0,61,1.34033203125E-5,38,23,46,26405,3695,3549,3135,986,1558,490,204,Tag0,unknown
1499246329945,0,85,1.86767578125E-5,38,23,46,26405,3695,3549,3135,986,1558,490,204,Tag0,unknown
1499246329945,0,104,2.28515625E-5,38,23,46,26405,3695,3549,3135,986,1558,490,204,Tag0,unknown
1499246329946,0,102,2.2412109374999998E-5,38,23,46,26405,3695,3549,3135,986,1558,490,204,Tag0,unknown
1499246329946,0,85,1.86767578125E-5,38,23,46,26405,3695,3549,3135,986,1558,490,204,Tag0,unknown
1499246329946,0,67,1.4721679687500002E-5,38,23,46,26405,3695,3549,3135,986,1558,490,204,Tag0,unknown
1499246329947,0,54,1.1865234375000001E-5,38,23,46,26405,3695,3549,3135,986,1558,490,204,Tag0,unknown
1499246329947,0,51,1.1206054687499999E-5,38,23,46,26405,3695,3549,3135,986,1558,490,204,Tag0,unknown
1499246329947,0,50,1.0986328125E-5,38,23,46,26405,3695,3549,3135,986,1558,490,204,Tag0,unknown
1499246329948,0,51,1.1206054687499999E-5,38,23,46,26405,3695,3549,3135,986,1558,490,204,Tag0,unknown
1499246329948,0,53,1.1645507812500002E-5,38,23,46,26405,3695,3549,3135,986,1558,490,204,Tag0,unknown
1499246329948,0,54,1.1865234375000001E-5,38,23,46,26405,3695,3549,3135,986,1558,490,204,Tag0,unknown
1499246329952,0,49,1.07666015625E-5,38,23,46,26405,3695,3549,3135,986,1558,490,204,Tag0,unknown
1499246329953,0,44,9.66796875E-6,38,23,46,26405,3695,3549,3135,986,1558,490,204,Tag0,unknown
1499246329954,0,56,1.23046875E-5,38,23,46,26405,3695,3549,3135,986,1558,490,204,Tag0,unknown
1499246329954,0,65,1.42822265625E-5,38,23,46,26405,3695,3549,3135,986,1558,490,204,Tag0,unknown
1499246329955,0,51,1.1206054687499999E-5,38,23,46,26405,3695,3549,3135,986,1558,490,204,Tag0,unknown
1499246329955,0,33,7.2509765625E-6,38,23,46,26405,3695,3549,3135,986,1558,490,204,Tag0,unknown
1499246329956,0,19,4.1748046875E-6,38,23,46,26405,3695,3549,3135,986,1558,490,204,Tag0,unknown
1499246329956,0,21,4.614257812500001E-6,38,23,46,26405,3695,3549,3135,986,1558,490,204,Tag0,unknown
1499246329956,0,55,1.20849609375E-5,38,23,46,26405,3695,3549,3135,986,1558,490,204,Tag0,unknown
1499246329957,0,88,1.93359375E-5,38,23,46,26405,3695,3549,3135,986,1558,490,204,Tag0,unknown
1499246329957,0,101,2.2192382812500002E-5,38,23,46,26405,3695,3549,3135,986,1558,490,204,Tag0,unknown
1499246329958,0,88,1.93359375E-5,38,23,46,26405,3695,3549,3135,986,1558,490,204,Tag0,unknown
1499246329958,0,71,1.56005859375E-5,38,23,46,26405,3695,3549,3135,986,1558,490,204,Tag0,unknown
1499246329959,0,70,1.5380859375E-5,38,23,46,26405,3695,3549,3135,986,1558,490,204,Tag0,unknown
1499246329959,0,72,1.58203125E-5,38,23,46,26405,3695,3549,3135,986,1558,490,204,Tag0,unknown
1499246329959,0,64,1.40625E-5,38,23,46,26405,3695,3549,3135,986,1558,490,204,Tag0,unknown
1499246329960,0,53,1.1645507812500002E-5,38,23,46,26405,3695,3549,3135,986,1558,490,204,Tag0,unknown
1499246329960,0,57,1.2524414062500001E-5,38,23,46,26405,3695,3549,3135,986,1558,490,204,Tag0,unknown
1499246329960,0,69,1.51611328125E-5,38,23,46,26405,3695,3549,3135,986,1558,490,204,Tag0,unknown
1499246329961,0,67,1.4721679687500002E-5,38,23,46,26405,3695,3549,3135,986,1558,490,204,Tag0,unknown
1499246329961,0,48,1.0546875E-5,38,23,46,26405,3695,3549,3135,986,1558,490,204,Tag0,unknown
1499246329962,0,23,5.0537109375E-6,38,23,46,26405,3695,3549,3135,986,1558,490,204,Tag0,unknown
1499246329962,0,24,5.2734375E-6,38,23,46,26405,3695,3549,3135,986,1558,490,204,Tag0,unknown
1499246329962,0,39,8.5693359375E-6,38,23,46,26405,3695,3549,3135,986,1558,490,204,Tag0,unknown
1499246329963,0,54,1.1865234375000001E-5,38,23,46,26405,3695,3549,3135,986,1558,490,204,Tag0,unknown
1499246330002,0,64,1.40625E-5,38,23,46,26405,3695,3549,3135,986,1558,490,204,Tag0,unknown
1499246330021,0,67,1.4721679687500002E-5,38,23,46,26405,3695,3549,3135,986,1558,490,204,Tag0,unknown
1499246330022,0,65,1.42822265625E-5,38,23,46,26405,3695,3549,3135,986,1558,490,204,Tag0,unknown
1499246330022,0,55,1.20849609375E-5,38,23,46,26405,3695,3549,3135,986,1558,490,204,Tag0,unknown
1499246330022,0,69,1.51611328125E-5,38,23,46,26405,3695,3549,3135,986,1558,490,204,Tag0,unknown
1499246330023,0,106,2.3291015625000003E-5,38,23,46,26405,3695,3549,3135,986,1558,490,204,Tag0,unknown
1499246330023,0,-118,-2.5927734375E-5,38,23,46,26405,3695,3549,3135,986,1558,490,204,Tag0,unknown
1499246330023,0,-128,-2.8125E-5,38,23,46,26405,3695,3549,3135,986,1558,490,204,Tag0,unknown
1499246330023,0,92,2.021484375E-5,38,23,46,26405,3695,3549,3135,986,1558,490,204,Tag0,unknown
1499246330024,0,71,1.56005859375E-5,38,23,46,26405,3695,3549,3135,986,1558,490,204,Tag0,unknown
1499246330024,0,68,1.4941406250000001E-5,38,23,46,26405,3695,3549,3135,986,1558,490,204,Tag0,unknown
1499246330024,0,85,1.86767578125E-5,38,23,46,26405,3695,3549,3135,986,1558,490,204,Tag0,unknown
1499246330024,0,104,2.28515625E-5,38,23,46,26405,3695,3549,3135,986,1558,490,204,Tag0,unknown
1499246330025,0,106,2.3291015625000003E-5,38,23,46,26405,3695,3549,3135,986,1558,490,204,Tag0,unknown
1499246330025,0,100,2.197265625E-5,38,23,46,26405,3695,3549,3135,986,1558,490,204,Tag0,unknown
1499246330025,0,90,1.9775390625E-5,38,23,46,26405,3695,3549,3135,986,1558,490,204,Tag0,unknown
1499246330026,0,83,1.82373046875E-5,38,23,46,26405,3695,3549,3135,986,1558,490,204,Tag0,unknown
1499246330026,0,73,1.6040039062500002E-5,38,23,46,26405,3695,3549,3135,986,1558,490,204,Tag0,unknown
1499246330026,0,66,1.4501953125E-5,38,23,46,26405,3695,3549,3135,986,1558,490,204,Tag0,unknown
1499246330027,0,65,1.42822265625E-5,38,23,46,26405,3695,3549,3135,986,1558,490,204,Tag0,unknown
1499246330027,0,68,1.4941406250000001E-5,38,23,46,26405,3695,3549,3135,986,1558,490,204,Tag0,unknown
1499246330028,0,80,1.7578125E-5,38,23,46,26405,3695,3549,3135,986,1558,490,204,Tag0,unknown
1499246330028,0,85,1.86767578125E-5,38,23,46,26405,3695,3549,3135,986,1558,490,204,Tag0,unknown
1499246330028,0,74,1.6259765625E-5,38,23,46,26405,3695,3549,3135,986,1558,490,204,Tag0,unknown
1499246330028,0,61,1.34033203125E-5,38,23,46,26405,3695,3549,3135,986,1558,490,204,Tag0,unknown
1499246330028,0,68,1.4941406250000001E-5,38,23,46,26405,3695,3549,3135,986,1558,490,204,Tag0,unknown
1499246330029,0,72,1.58203125E-5,38,23,46,26405,3695,3549,3135,986,1558,490,204,Tag0,unknown
1499246330029,0,75,1.64794921875E-5,38,23,46,26405,3695,3549,3135,986,1558,490,204,Tag0,unknown
1499246330029,0,90,1.9775390625E-5,38,23,46,26405,3695,3549,3135,986,1558,490,204,Tag0,unknown
1499246330029,0,100,2.197265625E-5,38,23,46,26405,3695,3549,3135,986,1558,490,204,Tag0,unknown
1499246330029,0,99,2.1752929687500003E-5,38,23,46,26405,3695,3549,3135,986,1558,490,204,Tag0,unknown
1499246330030,0,90,1.9775390625E-5,38,23,46,26405,3695,3549,3135,986,1558,490,204,Tag0,unknown
1499246330039,0,86,1.8896484375000003E-5,38,23,46,26405,3695,3549,3135,986,1558,490,204,Tag0,unknown
1499246330039,0,80,1.7578125E-5,38,23,46,26405,3695,3549,3135,986,1558,490,204,Tag0,unknown
1499246330040,0,74,1.6259765625E-5,38,23,46,26405,3695,3549,3135,986,1558,490,204,Tag0,unknown
1499246330040,0,75,1.64794921875E-5,38,23,46,26405,3695,3549,3135,986,1558,490,204,Tag0,unknown
1499246330040,0,60,1.318359375E-5,38,23,46,26405,3695,3549,3135,986,1558,490,204,Tag0,unknown
1499246330042,0,40,8.7890625E-6,38,23,46,26405,3695,3549,3135,986,1558,490,204,Tag0,unknown
1499246330042,0,23,5.0537109375E-6,38,23,46,26405,3695,3549,3135,986,1558,490,204,Tag0,unknown
1499246330042,0,20,4.39453125E-6,38,23,46,26405,3695,3549,3135,986,1558,490,204,Tag0,unknown
1499246330043,0,27,5.9326171875000005E-6,38,23,46,26405,3695,3549,3135,986,1558,490,204,Tag0,unknown
1499246330043,0,28,6.15234375E-6,38,23,46,26405,3695,3549,3135,986,1558,490,204,Tag0,unknown
1499246330043,0,34,7.4707031250000005E-6,38,23,46,26405,3695,3549,3135,986,1558,490,204,Tag0,unknown
1499246330043,0,40,8.7890625E-6,38,23,46,26405,3695,3549,3135,986,1558,490,204,Tag0,unknown
1499246330043,0,32,7.03125E-6,38,23,46,26405,3695,3549,3135,986,1558,490,204,Tag0,unknown
1499246330044,0,27,5.9326171875000005E-6,38,23,46,26405,3695,3549,3135,986,1558,490,204,Tag0,unknown
1499246330044,0,34,7.4707031250000005E-6,38,23,46,26405,3695,3549,3135,986,1558,490,204,Tag0,unknown
1499246330044,0,21,4.614257812500001E-6,38,23,46,26405,3695,3549,3135,986,1558,490,204,Tag0,unknown
1499246330109,0,7,1.5380859375E-6,38,23,46,26405,3695,3549,3135,986,1558,490,204,Tag0,unknown
1499246330125,0,17,3.7353515625000003E-6,38,23,46,26405,3695,3549,3135,986,1558,490,204,Tag0,unknown
1499246330126,0,54,1.1865234375000001E-5,38,23,46,26405,3695,3549,3135,986,1558,490,204,Tag0,unknown
1499246330126,0,99,2.1752929687500003E-5,38,23,46,26405,3695,3549,3135,986,1558,490,204,Tag0,unknown
1499246330127,0,102,2.2412109374999998E-5,38,23,46,26405,3695,3549,3135,986,1558,490,204,Tag0,unknown
1499246330127,0,58,1.2744140625E-5,38,23,46,26405,3695,3549,3135,986,1558,490,204,Tag0,unknown
1499246330128,0,28,6.15234375E-6,38,23,46,26405,3695,3549,3135,986,1558,490,204,Tag0,unknown
1499246330129,0,28,6.15234375E-6,38,23,46,26405,3695,3549,3135,986,1558,490,204,Tag0,unknown
1499246330129,0,51,1.1206054687499999E-5,38,23,46,26405,3695,3549,3135,986,1558,490,204,Tag0,unknown
1499246330130,0,74,1.6259765625E-5,38,23,46,26405,3695,3549,3135,986,1558,490,204,Tag0,unknown
1499246330131,0,97,2.13134765625E-5,38,23,46,26405,3695,3549,3135,986,1558,490,204,Tag0,unknown
1499246330131,0,107,2.35107421875E-5,38,23,46,26405,3695,3549,3135,986,1558,490,204,Tag0,unknown
1499246330132,0,118,2.5927734375E-5,38,23,46,26405,3695,3549,3135,986,1558,490,204,Tag0,unknown
1499246330133,0,118,2.5927734375E-5,38,23,46,26405,3695,3549,3135,986,1558,490,204,Tag0,unknown
1499246330133,0,91,1.99951171875E-5,38,23,46,26405,3695,3549,3135,986,1558,490,204,Tag0,unknown
1499246330134,0,66,1.4501953125E-5,38,23,46,26405,3695,3549,3135,986,1558,490,204,Tag0,unknown
1499246330134,0,60,1.318359375E-5,38,23,46,26405,3695,3549,3135,986,1558,490,204,Tag0,unknown
1499246330135,0,90,1.9775390625E-5,38,23,46,26405,3695,3549,3135,986,1558,490,204,Tag0,unknown
1499246330136,0,105,2.30712890625E-5,38,23,46,26405,3695,3549,3135,986,1558,490,204,Tag0,unknown
1499246330136,0,91,1.99951171875E-5,38,23,46,26405,3695,3549,3135,986,1558,490,204,Tag0,unknown
1499246330137,0,90,1.9775390625E-5,38,23,46,26405,3695,3549,3135,986,1558,490,204,Tag0,unknown
1499246330137,0,88,1.93359375E-5,38,23,46,26405,3695,3549,3135,986,1558,490,204,Tag0,unknown
1499246330139,0,70,1.5380859375E-5,38,23,46,26405,3695,3549,3135,986,1558,490,204,Tag0,unknown
1499246330139,0,40,8.7890625E-6,38,23,46,26405,3695,3549,3135,986,1558,490,204,Tag0,unknown
1499246330140,0,54,1.1865234375000001E-5,38,23,46,26405,3695,3549,3135,986,1558,490,204,Tag0,unknown
1499246330140,0,92,2.021484375E-5,38,23,46,26405,3695,3549,3135,986,1558,490,204,Tag0,unknown
1499246330141,0,114,2.5048828125000003E-5,38,23,46,26405,3695,3549,3135,986,1558,490,204,Tag0,unknown
1499246330142,0,85,1.86767578125E-5,38,23,46,26405,3695,3549,3135,986,1558,490,204,Tag0,unknown
1499246330142,0,23,5.0537109375E-6,38,23,46,26405,3695,3549,3135,986,1558,490,204,Tag0,unknown
1499246330143,0,7,1.5380859375E-6,38,23,46,26405,3695,3549,3135,986,1558,490,204,Tag0,unknown
1499246330143,0,25,5.4931640625E-6,38,23,46,26405,3695,3549,3135,986,1558,490,204,Tag0,unknown
1499246330143,0,24,5.2734375E-6,38,23,46,26405,3695,3549,3135,986,1558,490,204,Tag0,unknown
1499246330143,0,-267,-5.86669921875E-5,38,23,46,26405,3695,3549,3135,986,1558,490,204,Tag0,unknown
1499246330144,0,-296,-6.50390625E-5,38,23,46,26405,3695,3549,3135,986,1558,490,204,Tag0,unknown
1499246330144,0,-298,-6.5478515625E-5,38,23,46,26405,3695,3549,3135,986,1558,490,204,Tag0,unknown
1499246330144,0,-291,-6.39404296875E-5,38,23,46,26405,3695,3549,3135,986,1558,490,204,Tag0,unknown
1499246330149,0,-284,-6.240234375E-5,38,23,46,26405,3695,3549,3135,986,1558,490,204,Tag0,unknown
1499246330149,0,-279,-6.13037109375E-5,38,23,46,26405,3695,3549,3135,986,1558,490,204,Tag0,unknown
1499246330150,0,-278,-6.108398437500001E-5,38,23,46,26405,3695,3549,3135,986,1558,490,204,Tag0,unknown
1499246330150,0,-298,-6.5478515625E-5,38,23,46,26405,3695,3549,3135,986,1558,490,204,Tag0,unknown
1499246330150,0,-360,-7.91015625E-5,38,23,46,26405,3695,3549,3135,986,1558,490,204,Tag0,unknown
1499246330151,0,-138,-3.0322265625E-5,38,23,46,26405,3695,3549,3135,986,1558,490,204,Tag0,unknown
1499246330151,0,-354,-7.778320312500001E-5,38,23,46,26405,3695,3549,3135,986,1558,490,204,Tag0,unknown
1499246330152,0,-295,-6.48193359375E-5,38,23,46,26405,3695,3549,3135,986,1558,490,204,Tag0,unknown
1499246330152,0,-268,-5.8886718750000006E-5,38,23,46,26405,3695,3549,3135,986,1558,490,204,Tag0,unknown
1499246330152,0,-289,-6.35009765625E-5,38,23,46,26405,3695,3549,3135,986,1558,490,204,Tag0,unknown
1499246330153,0,-324,-7.119140625E-5,38,23,46,26405,3695,3549,3135,986,1558,490,204,Tag0,unknown
1499246330153,0,-332,-7.294921875E-5,38,23,46,26405,3695,3549,3135,986,1558,490,204,Tag0,unknown
1499246330279,0,-314,-6.8994140625E-5,38,23,46,26405,3695,3549,3135,986,1558,490,204,Tag0,unknown
1499246330280,0,-282,-6.1962890625E-5,38,23,46,26405,3695,3549,3135,986,1558,490,204,Tag0,unknown
1499246330280,0,0,0.0,38,23,46,26405,3695,3549,3135,986,1558,490,204,Tag0,unknown
1499246330281,0,-262,-5.7568359375E-5,38,23,46,26405,3695,3549,3135,986,1558,490,204,Tag0,unknown
1499246330281,0,-280,-6.15234375E-5,38,23,46,26405,3695,3549,3135,986,1558,490,204,Tag0,unknown
1499246330282,0,-296,-6.50390625E-5,38,23,46,26405,3695,3549,3135,986,1558,490,204,Tag0,unknown
1499246330282,0,-322,-7.0751953125E-5,38,23,46,26405,3695,3549,3135,986,1558,490,204,Tag0,unknown
1499246330282,0,-342,-7.5146484375E-5,38,23,46,26405,3695,3549,3135,986,1558,490,204,Tag0,unknown
1499246330283,0,-345,-7.58056640625E-5,38,23,46,26405,3695,3549,3135,986,1558,490,204,Tag0,unknown
1499246330283,0,-345,-7.58056640625E-5,38,23,46,26405,3695,3549,3135,986,1558,490,204,Tag0,unknown
1499246330283,0,-358,-7.8662109375E-5,38,23,46,26405,3695,3549,3135,986,1558,490,204,Tag0,unknown
1499246330284,0,-364,-7.998046875E-5,38,23,46,26405,3695,3549,3135,986,1558,490,204,Tag0,unknown
1499246330284,0,-357,-7.844238281250001E-5,38,23,46,26405,3695,3549,3135,986,1558,490,204,Tag0,unknown
1499246330284,0,-348,-7.646484375E-5,38,23,46,26405,3695,3549,3135,986,1558,490,204,Tag0,unknown
1499246330285,0,-328,-7.207031249999999E-5,38,23,46,26405,3695,3549,3135,986,1558,490,204,Tag0,unknown
1499246330285,0,-298,-6.5478515625E-5,38,23,46,26405,3695,3549,3135,986,1558,490,204,Tag0,unknown
1499246330285,0,-291,-6.39404296875E-5,38,23,46,26405,3695,3549,3135,986,1558,490,204,Tag0,unknown
1499246330286,0,-310,-6.8115234375E-5,38,23,46,26405,3695,3549,3135,986,1558,490,204,Tag0,unknown
1499246330286,0,-312,-6.85546875E-5,38,23,46,26405,3695,3549,3135,986,1558,490,204,Tag0,unknown
1499246330286,0,-294,-6.4599609375E-5,38,23,46,26405,3695,3549,3135,986,1558,490,204,Tag0,unknown
1499246330287,0,-277,-6.0864257812500005E-5,38,23,46,26405,3695,3549,3135,986,1558,490,204,Tag0,unknown
1499246330287,0,-265,-5.82275390625E-5,38,23,46,26405,3695,3549,3135,986,1558,490,204,Tag0,unknown
1499246330287,0,1,2.197265625E-7,38,23,46,26405,3695,3549,3135,986,1558,490,204,Tag0,unknown
1499246330288,0,7,1.5380859375E-6,38,23,46,26405,3695,3549,3135,986,1558,490,204,Tag0,unknown
1499246330288,0,11,2.4169921875E-6,38,23,46,26405,3695,3549,3135,986,1558,490,204,Tag0,unknown
1499246330288,0,21,4.614257812500001E-6,38,23,46,26405,3695,3549,3135,986,1558,490,204,Tag0,unknown
1499246330288,0,33,7.2509765625E-6,38,23,46,26405,3695,3549,3135,986,1558,490,204,Tag0,unknown
1499246330289,0,42,9.228515625000002E-6,38,23,46,26405,3695,3549,3135,986,1558,490,204,Tag0,unknown
1499246330289,0,38,8.349609375E-6,38,23,46,26405,3695,3549,3135,986,1558,490,204,Tag0,unknown
1499246330290,0,40,8.7890625E-6,38,23,46,26405,3695,3549,3135,986,1558,490,204,Tag0,unknown
1499246330290,0,57,1.2524414062500001E-5,38,23,46,26405,3695,3549,3135,986,1558,490,204,Tag0,unknown
1499246330321,0,59,1.29638671875E-5,38,23,46,26405,3695,3549,3135,986,1558,490,204,Tag0,unknown
1499246330346,0,50,1.0986328125E-5,38,23,46,26405,3695,3549,3135,986,1558,490,204,Tag0,unknown
1499246330347,0,34,7.4707031250000005E-6,38,23,46,26405,3695,3549,3135,986,1558,490,204,Tag0,unknown
1499246330347,0,25,5.4931640625E-6,38,23,46,26405,3695,3549,3135,986,1558,490,204,Tag0,unknown
1499246330348,0,35,7.6904296875E-6,38,23,46,26405,3695,3549,3135,986,1558,490,204,Tag0,unknown
1499246330348,0,66,1.4501953125E-5,38,23,46,26405,3695,3549,3135,986,1558,490,204,Tag0,unknown
1499246330348,0,82,1.8017578124999998E-5,38,23,46,26405,3695,3549,3135,986,1558,490,204,Tag0,unknown
1499246330349,0,68,1.4941406250000001E-5,38,23,46,26405,3695,3549,3135,986,1558,490,204,Tag0,unknown
1499246330349,0,39,8.5693359375E-6,38,23,46,26405,3695,3549,3135,986,1558,490,204,Tag0,unknown
1499246330349,0,24,5.2734375E-6,38,23,46,26405,3695,3549,3135,986,1558,490,204,Tag0,unknown
1499246330349,0,34,7.4707031250000005E-6,38,23,46,26405,3695,3549,3135,986,1558,490,204,Tag0,unknown
1499246330350,0,50,1.0986328125E-5,38,23,46,26405,3695,3549,3135,986,1558,490,204,Tag0,unknown
1499246330350,0,60,1.318359375E-5,38,23,46,26405,3695,3549,3135,986,1558,490,204,Tag0,unknown
1499246330351,0,52,1.142578125E-5,38,23,46,26405,3695,3549,3135,986,1558,490,204,Tag0,unknown
1499246330351,0,21,4.614257812500001E-6,38,23,46,26405,3695,3549,3135,986,1558,490,204,Tag0,unknown
1499246330351,0,20,4.39453125E-6,38,23,46,26405,3695,3549,3135,986,1558,490,204,Tag0,unknown
1499246330352,0,55,1.20849609375E-5,38,23,46,26405,3695,3549,3135,986,1558,490,204,Tag0,unknown
1499246330352,0,82,1.8017578124999998E-5,38,23,46,26405,3695,3549,3135,986,1558,490,204,Tag0,unknown
1499246330352,0,84,1.8457031250000004E-5,38,23,46,26405,3695,3549,3135,986,1558,490,204,Tag0,unknown
1499246330353,0,68,1.4941406250000001E-5,38,23,46,26405,3695,3549,3135,986,1558,490,204,Tag0,unknown
1499246330353,0,56,1.23046875E-5,38,23,46,26405,3695,3549,3135,986,1558,490,204,Tag0,unknown
1499246330353,0,58,1.2744140625E-5,38,23,46,26405,3695,3549,3135,986,1558,490,204,Tag0,unknown
1499246330353,0,70,1.5380859375E-5,38,23,46,26405,3695,3549,3135,986,1558,490,204,Tag0,unknown
1499246330353,0,84,1.8457031250000004E-5,38,23,46,26405,3695,3549,3135,986,1558,490,204,Tag0,unknown
1499246330354,0,86,1.8896484375000003E-5,38,23,46,26405,3695,3549,3135,986,1558,490,204,Tag0,unknown
1499246330354,0,80,1.7578125E-5,38,23,46,26405,3695,3549,3135,986,1558,490,204,Tag0,unknown
1499246330354,0,82,1.8017578124999998E-5,38,23,46,26405,3695,3549,3135,986,1558,490,204,Tag0,unknown
1499246330354,0,93,2.04345703125E-5,38,23,46,26405,3695,3549,3135,986,1558,490,204,Tag0,unknown
1499246330355,0,100,2.197265625E-5,38,23,46,26405,3695,3549,3135,986,1558,490,204,Tag0,unknown
1499246330355,0,116,2.548828125E-5,38,23,46,26405,3695,3549,3135,986,1558,490,204,Tag0,unknown
1499246330355,0,-107,-2.35107421875E-5,38,23,46,26405,3695,3549,3135,986,1558,490,204,Tag0,unknown
1499246330356,0,-116,-2.548828125E-5,38,23,46,26405,3695,3549,3135,986,1558,490,204,Tag0,unknown
1499246330356,0,104,2.28515625E-5,38,23,46,26405,3695,3549,3135,986,1558,490,204,Tag0,unknown
1499246330356,0,103,2.26318359375E-5,38,23,46,26405,3695,3549,3135,986,1558,490,204,Tag0,unknown
1499246330357,0,-109,-2.39501953125E-5,38,23,46,26405,3695,3549,3135,986,1558,490,204,Tag0,unknown
1499246330357,0,-71,-1.56005859375E-5,38,23,46,26405,3695,3549,3135,986,1558,490,204,Tag0,unknown
1499246330357,0,-73,-1.6040039062500002E-5,38,23,46,26405,3695,3549,3135,986,1558,490,204,Tag0,unknown
1499246330357,0,-106,-2.3291015625000003E-5,38,23,46,26405,3695,3549,3135,986,1558,490,204,Tag0,unknown
1499246330357,0,-122,-2.6806640625E-5,38,23,46,26405,3695,3549,3135,986,1558,490,204,Tag0,unknown
1499246330358,0,-125,-2.74658203125E-5,38,23,46,26405,3695,3549,3135,986,1558,490,204,Tag0,unknown
1499246330358,0,115,2.52685546875E-5,38,23,46,26405,3695,3549,3135,986,1558,490,204,Tag0,unknown
1499246330358,0,108,2.3730468750000002E-5,38,23,46,26405,3695,3549,3135,986,1558,490,204,Tag0,unknown
1499246330358,0,-124,-2.724609375E-5,38,23,46,26405,3695,3549,3135,986,1558,490,204,Tag0,unknown
1499246330359,0,-92,-2.021484375E-5,38,23,46,26405,3695,3549,3135,986,1558,490,204,Tag0,unknown
1499246330359,0,-59,-1.29638671875E-5,38,23,46,26405,3695,3549,3135,986,1558,490,204,Tag0,unknown
1499246330359,0,-43,-9.448242187500001E-6,38,23,46,26405,3695,3549,3135,986,1558,490,204,Tag0,unknown
1499246330359,0,-41,-9.008789062499999E-6,38,23,46,26405,3695,3549,3135,986,1558,490,204,Tag0,unknown
1499246330360,0,-78,-1.7138671875E-5,38,23,46,26405,3695,3549,3135,986,1558,490,204,Tag0,unknown
1499246330360,0,-103,-2.26318359375E-5,38,23,46,26405,3695,3549,3135,986,1558,490,204,Tag0,unknown
1499246330360,0,-99,-2.1752929687500003E-5,38,23,46,26405,3695,3549,3135,986,1558,490,204,Tag0,unknown
1499246330360,0,-84,-1.8457031250000004E-5,38,23,46,26405,3695,3549,3135,986,1558,490,204,Tag0,unknown
1499246330361,0,-56,-1.23046875E-5,38,23,46,26405,3695,3549,3135,986,1558,490,204,Tag0,unknown
1499246330361,0,-53,-1.1645507812500002E-5,38,23,46,26405,3695,3549,3135,986,1558,490,204,Tag0,unknown
1499246330361,0,-78,-1.7138671875E-5,38,23,46,26405,3695,3549,3135,986,1558,490,204,Tag0,unknown
1499246330361,0,-101,-2.2192382812500002E-5,38,23,46,26405,3695,3549,3135,986,1558,490,204,Tag0,unknown
1499246330362,0,-109,-2.39501953125E-5,38,23,46,26405,3695,3549,3135,986,1558,490,204,Tag0,unknown
1499246330362,0,-120,-2.63671875E-5,38,23,46,26405,3695,3549,3135,986,1558,490,204,Tag0,unknown
1499246330362,0,119,2.6147460937500004E-5,38,23,46,26405,3695,3549,3135,986,1558,490,204,Tag0,unknown
1499246330362,0,106,2.3291015625000003E-5,38,23,46,26405,3695,3549,3135,986,1558,490,204,Tag0,unknown
1499246330362,0,88,1.93359375E-5,38,23,46,26405,3695,3549,3135,986,1558,490,204,Tag0,unknown
1499246330363,0,58,1.2744140625E-5,38,23,46,26405,3695,3549,3135,986,1558,490,204,Tag0,unknown
1499246330363,0,64,1.40625E-5,38,23,46,26405,3695,3549,3135,986,1558,490,204,Tag0,unknown
1499246330363,0,-128,-2.8125E-5,38,23,46,26405,3695,3549,3135,986,1558,490,204,Tag0,unknown
1499246330363,0,-70,-1.5380859375E-5,38,23,46,26405,3695,3549,3135,986,1558,490,204,Tag0,unknown
1499246330690,0,-44,-9.66796875E-6,38,23,46,26405,3695,3549,3135,986,1558,490,204,Tag0,unknown
1499246330690,0,-68,-1.4941406250000001E-5,38,23,46,26405,3695,3549,3135,986,1558,490,204,Tag0,unknown
1499246330690,0,-75,-1.64794921875E-5,38,23,46,26405,3695,3549,3135,986,1558,490,204,Tag0,unknown
1499246330691,0,-51,-1.1206054687499999E-5,38,23,46,26405,3695,3549,3135,986,1558,490,204,Tag0,unknown
1499246330691,0,-32,-7.03125E-6,38,23,46,26405,3695,3549,3135,986,1558,490,204,Tag0,unknown
1499246330691,0,-42,-9.228515625000002E-6,38,23,46,26405,3695,3549,3135,986,1558,490,204,Tag0,unknown
1499246330691,0,-63,-1.38427734375E-5,38,23,46,26405,3695,3549,3135,986,1558,490,204,Tag0,unknown
1499246330692,0,-68,-1.4941406250000001E-5,38,23,46,26405,3695,3549,3135,986,1558,490,204,Tag0,unknown
1499246330692,0,-61,-1.34033203125E-5,38,23,46,26405,3695,3549,3135,986,1558,490,204,Tag0,unknown
1499246330692,0,-61,-1.34033203125E-5,38,23,46,26405,3695,3549,3135,986,1558,490,204,Tag0,unknown
1499246330692,0,-92,-2.021484375E-5,38,23,46,26405,3695,3549,3135,986,1558,490,204,Tag0,unknown
1499246330693,0,119,2.6147460937500004E-5,38,23,46,26405,3695,3549,3135,986,1558,490,204,Tag0,unknown
1499246330693,0,90,1.9775390625E-5,38,23,46,26405,3695,3549,3135,986,1558,490,204,Tag0,unknown
1499246330693,0,85,1.86767578125E-5,38,23,46,26405,3695,3549,3135,986,1558,490,204,Tag0,unknown
1499246330693,0,103,2.26318359375E-5,38,23,46,26405,3695,3549,3135,986,1558,490,204,Tag0,unknown
1499246330694,0,114,2.5048828125000003E-5,38,23,46,26405,3695,3549,3135,986,1558,490,204,Tag0,unknown
1499246330694,0,108,2.3730468750000002E-5,38,23,46,26405,3695,3549,3135,986,1558,490,204,Tag0,unknown
1499246330695,0,92,2.021484375E-5,38,23,46,26405,3695,3549,3135,986,1558,490,204,Tag0,unknown
1499246330695,0,88,1.93359375E-5,38,23,46,26405,3695,3549,3135,986,1558,490,204,Tag0,unknown
1499246330695,0,106,2.3291015625000003E-5,38,23,46,26405,3695,3549,3135,986,1558,490,204,Tag0,unknown
1499246330696,0,-122,-2.6806640625E-5,38,23,46,26405,3695,3549,3135,986,1558,490,204,Tag0,unknown
1499246330696,0,-109,-2.39501953125E-5,38,23,46,26405,3695,3549,3135,986,1558,490,204,Tag0,unknown
1499246330696,0,124,2.724609375E-5,38,23,46,26405,3695,3549,3135,986,1558,490,204,Tag0,unknown
1499246330697,0,122,2.6806640625E-5,38,23,46,26405,3695,3549,3135,986,1558,490,204,Tag0,unknown
1499246330697,0,-107,-2.35107421875E-5,38,23,46,26405,3695,3549,3135,986,1558,490,204,Tag0,unknown
1499246330697,0,-101,-2.2192382812500002E-5,38,23,46,26405,3695,3549,3135,986,1558,490,204,Tag0,unknown
1499246330697,0,-109,-2.39501953125E-5,38,23,46,26405,3695,3549,3135,986,1558,490,204,Tag0,unknown
1499246330697,0,-122,-2.6806640625E-5,38,23,46,26405,3695,3549,3135,986,1558,490,204,Tag0,unknown
1499246330698,0,117,2.5708007812499998E-5,38,23,46,26405,3695,3549,3135,986,1558,490,204,Tag0,unknown
1499246330698,0,109,2.39501953125E-5,38,23,46,26405,3695,3549,3135,986,1558,490,204,Tag0,unknown
1499246330698,0,121,2.6586914062500003E-5,38,23,46,26405,3695,3549,3135,986,1558,490,204,Tag0,unknown
1499246330698,0,-126,-2.7685546875E-5,38,23,46,26405,3695,3549,3135,986,1558,490,204,Tag0,unknown
1499246330699,0,-121,-2.6586914062500003E-5,38,23,46,26405,3695,3549,3135,986,1558,490,204,Tag0,unknown
1499246330699,0,-119,-2.6147460937500004E-5,38,23,46,26405,3695,3549,3135,986,1558,490,204,Tag0,unknown
1499246330699,0,-125,-2.74658203125E-5,38,23,46,26405,3695,3549,3135,986,1558,490,204,Tag0,unknown
1499246330699,0,-115,-2.52685546875E-5,38,23,46,26405,3695,3549,3135,986,1558,490,204,Tag0,unknown
1499246330699,0,-77,-1.69189453125E-5,38,23,46,26405,3695,3549,3135,986,1558,490,204,Tag0,unknown
1499246330700,0,-59,-1.29638671875E-5,38,23,46,26405,3695,3549,3135,986,1558,490,204,Tag0,unknown
1499246330700,0,-69,-1.51611328125E-5,38,23,46,26405,3695,3549,3135,986,1558,490,204,Tag0,unknown
1499246330700,0,-92,-2.021484375E-5,38,23,46,26405,3695,3549,3135,986,1558,490,204,Tag0,unknown
1499246330700,0,-111,-2.43896484375E-5,38,23,46,26405,3695,3549,3135,986,1558,490,204,Tag0,unknown
1499246330700,0,-118,-2.5927734375E-5,38,23,46,26405,3695,3549,3135,986,1558,490,204,Tag0,unknown
1499246330701,0,-127,-2.79052734375E-5,38,23,46,26405,3695,3549,3135,986,1558,490,204,Tag0,unknown
1499246330701,0,100,2.197265625E-5,38,23,46,26405,3695,3549,3135,986,1558,490,204,Tag0,unknown
1499246330701,0,85,1.86767578125E-5,38,23,46,26405,3695,3549,3135,986,1558,490,204,Tag0,unknown
1499246330701,0,96,2.109375E-5,38,23,46,26405,3695,3549,3135,986,1558,490,204,Tag0,unknown
1499246330701,0,-120,-2.63671875E-5,38,23,46,26405,3695,3549,3135,986,1558,490,204,Tag0,unknown
1499246330702,0,-101,-2.2192382812500002E-5,38,23,46,26405,3695,3549,3135,986,1558,490,204,Tag0,unknown
1499246330702,0,-117,-2.5708007812499998E-5,38,23,46,26405,3695,3549,3135,986,1558,490,204,Tag0,unknown
1499246330702,0,115,2.52685546875E-5,38,23,46,26405,3695,3549,3135,986,1558,490,204,Tag0,unknown
1499246330702,0,105,2.30712890625E-5,38,23,46,26405,3695,3549,3135,986,1558,490,204,Tag0,unknown
1499246330702,0,123,2.70263671875E-5,38,23,46,26405,3695,3549,3135,986,1558,490,204,Tag0,unknown
1499246330703,0,-116,-2.548828125E-5,38,23,46,26405,3695,3549,3135,986,1558,490,204,Tag0,unknown
1499246330703,0,-125,-2.74658203125E-5,38,23,46,26405,3695,3549,3135,986,1558,490,204,Tag0,unknown
1499246330703,0,117,2.5708007812499998E-5,38,23,46,26405,3695,3549,3135,986,1558,490,204,Tag0,unknown
1499246330703,0,107,2.35107421875E-5,38,23,46,26405,3695,3549,3135,986,1558,490,204,Tag0,unknown
1499246330703,0,104,2.28515625E-5,38,23,46,26405,3695,3549,3135,986,1558,490,204,Tag0,unknown
1499246330703,0,105,2.30712890625E-5,38,23,46,26405,3695,3549,3135,986,1558,490,204,Tag0,unknown
1499246330704,0,100,2.197265625E-5,38,23,46,26405,3695,3549,3135,986,1558,490,204,Tag0,unknown
1499246330704,0,90,1.9775390625E-5,38,23,46,26405,3695,3549,3135,986,1558,490,204,Tag0,unknown
1499246330704,0,90,1.9775390625E-5,38,23,46,26405,3695,3549,3135,986,1558,490,204,Tag0,unknown
1499246330704,0,116,2.548828125E-5,38,23,46,26405,3695,3549,3135,986,1558,490,204,Tag0,unknown
1499246330704,0,-102,-2.2412109374999998E-5,38,23,46,26405,3695,3549,3135,986,1558,490,204,Tag0,unknown
1499246330705,0,-90,-1.9775390625E-5,38,23,46,26405,3695,3549,3135,986,1558,490,204,Tag0,unknown
1499246330705,0,-106,-2.3291015625000003E-5,38,23,46,26405,3695,3549,3135,986,1558,490,204,Tag0,unknown
1499246330705,0,-126,-2.7685546875E-5,38,23,46,26405,3695,3549,3135,986,1558,490,204,Tag0,unknown
1499246330705,0,-124,-2.724609375E-5,38,23,46,26405,3695,3549,3135,986,1558,490,204,Tag0,unknown
1499246330705,0,117,2.5708007812499998E-5,38,23,46,26405,3695,3549,3135,986,1558,490,204,Tag0,unknown
1499246330706,0,86,1.8896484375000003E-5,38,23,46,26405,3695,3549,3135,986,1558,490,204,Tag0,unknown
1499246330706,0,87,1.91162109375E-5,38,23,46,26405,3695,3549,3135,986,1558,490,204,Tag0,unknown
1499246330706,0,104,2.28515625E-5,38,23,46,26405,3695,3549,3135,986,1558,490,204,Tag0,unknown
1499246330706,0,-127,-2.79052734375E-5,38,23,46,26405,3695,3549,3135,986,1558,490,204,Tag0,unknown
1499246330706,0,-109,-2.39501953125E-5,38,23,46,26405,3695,3549,3135,986,1558,490,204,Tag0,unknown
1499246330707,0,-107,-2.35107421875E-5,38,23,46,26405,3695,3549,3135,986,1558,490,204,Tag0,unknown
1499246330707,0,-111,-2.43896484375E-5,38,23,46,26405,3695,3549,3135,986,1558,490,204,Tag0,unknown
1499246330707,0,-119,-2.6147460937500004E-5,38,23,46,26405,3695,3549,3135,986,1558,490,204,Tag0,unknown
1499246330707,0,-128,-2.8125E-5,38,23,46,26405,3695,3549,3135,986,1558,490,204,Tag0,unknown
1499246330707,0,-124,-2.724609375E-5,38,23,46,26405,3695,3549,3135,986,1558,490,204,Tag0,unknown
1499246330708,0,-100,-2.197265625E-5,38,23,46,26405,3695,3549,3135,986,1558,490,204,Tag0,unknown
1499246330708,0,-76,-1.669921875E-5,38,23,46,26405,3695,3549,3135,986,1558,490,204,Tag0,unknown
1499246330708,0,-85,-1.86767578125E-5,38,23,46,26405,3695,3549,3135,986,1558,490,204,Tag0,unknown
1499246330708,0,-112,-2.4609375E-5,38,23,46,26405,3695,3549,3135,986,1558,490,204,Tag0,unknown
1499246330708,0,123,2.70263671875E-5,38,23,46,26405,3695,3549,3135,986,1558,490,204,Tag0,unknown
1499246330708,0,-125,-2.74658203125E-5,38,23,46,26405,3695,3549,3135,986,1558,490,204,Tag0,unknown
1499246330709,0,-125,-2.74658203125E-5,38,23,46,26405,3695,3549,3135,986,1558,490,204,Tag0,unknown
1499246330709,0,-128,-2.8125E-5,38,23,46,26405,3695,3549,3135,986,1558,490,204,Tag0,unknown
1499246330709,0,115,2.52685546875E-5,38,23,46,26405,3695,3549,3135,986,1558,490,204,Tag0,unknown
1499246330709,0,83,1.82373046875E-5,38,23,46,26405,3695,3549,3135,986,1558,490,204,Tag0,unknown
1499246330709,0,73,1.6040039062500002E-5,38,23,46,26405,3695,3549,3135,986,1558,490,204,Tag0,unknown
1499246330710,0,97,2.13134765625E-5,38,23,46,26405,3695,3549,3135,986,1558,490,204,Tag0,unknown
1499246330710,0,99,2.1752929687500003E-5,38,23,46,26405,3695,3549,3135,986,1558,490,204,Tag0,unknown
1499246330710,0,80,1.7578125E-5,38,23,46,26405,3695,3549,3135,986,1558,490,204,Tag0,unknown
1499246330710,0,80,1.7578125E-5,38,23,46,26405,3695,3549,3135,986,1558,490,204,Tag0,unknown
1499246330710,0,101,2.2192382812500002E-5,38,23,46,26405,3695,3549,3135,986,1558,490,204,Tag0,unknown
1499246330711,0,113,2.48291015625E-5,38,23,46,26405,3695,3549,3135,986,1558,490,204,Tag0,unknown
1499246330711,0,112,2.4609375E-5,38,23,46,26405,3695,3549,3135,986,1558,490,204,Tag0,unknown
1499246330711,0,117,2.5708007812499998E-5,38,23,46,26405,3695,3549,3135,986,1558,490,204,Tag0,unknown
1499246330711,0,104,2.28515625E-5,38,23,46,26405,3695,3549,3135,986,1558,490,204,Tag0,unknown
1499246330711,0,80,1.7578125E-5,38,23,46,26405,3695,3549,3135,986,1558,490,204,Tag0,unknown
1499246330711,0,69,1.51611328125E-5,38,23,46,26405,3695,3549,3135,986,1558,490,204,Tag0,unknown
1499246330712,0,57,1.2524414062500001E-5,38,23,46,26405,3695,3549,3135,986,1558,490,204,Tag0,unknown
1499246330712,0,35,7.6904296875E-6,38,23,46,26405,3695,3549,3135,986,1558,490,204,Tag0,unknown
1499246330712,0,38,8.349609375E-6,38,23,46,26405,3695,3549,3135,986,1558,490,204,Tag0,unknown
1499246330712,0,49,1.07666015625E-5,38,23,46,26405,3695,3549,3135,986,1558,490,204,Tag0,unknown
1499246330713,0,40,8.7890625E-6,38,23,46,26405,3695,3549,3135,986,1558,490,204,Tag0,unknown
1499246330713,0,34,7.4707031250000005E-6,38,23,46,26405,3695,3549,3135,986,1558,490,204,Tag0,unknown
1499246330713,0,44,9.66796875E-6,38,23,46,26405,3695,3549,3135,986,1558,490,204,Tag0,unknown
1499246330713,0,60,1.318359375E-5,38,23,46,26405,3695,3549,3135,986,1558,490,204,Tag0,unknown
1499246330713,0,80,1.7578125E-5,38,23,46,26405,3695,3549,3135,986,1558,490,204,Tag0,unknown
1499246330714,0,85,1.86767578125E-5,38,23,46,26405,3695,3549,3135,986,1558,490,204,Tag0,unknown
1499246330714,0,81,1.77978515625E-5,38,23,46,26405,3695,3549,3135,986,1558,490,204,Tag0,unknown
1499246330714,0,81,1.77978515625E-5,38,23,46,26405,3695,3549,3135,986,1558,490,204,Tag0,unknown
1499246330714,0,67,1.4721679687500002E-5,38,23,46,26405,3695,3549,3135,986,1558,490,204,Tag0,unknown
1499246330714,0,57,1.2524414062500001E-5,38,23,46,26405,3695,3549,3135,986,1558,490,204,Tag0,unknown
1499246330714,0,57,1.2524414062500001E-5,38,23,46,26405,3695,3549,3135,986,1558,490,204,Tag0,unknown
1499246330715,0,69,1.51611328125E-5,38,23,46,26405,3695,3549,3135,986,1558,490,204,Tag0,unknown
1499246330715,0,56,1.23046875E-5,38,23,46,26405,3695,3549,3135,986,1558,490,204,Tag0,unknown
1499246330715,0,27,5.9326171875000005E-6,38,23,46,26405,3695,3549,3135,986,1558,490,204,Tag0,unknown
1499246330717,0,26,5.712890625E-6,38,23,46,26405,3695,3549,3135,986,1558,490,204,Tag0,unknown
1499246330717,0,42,9.228515625000002E-6,38,23,46,26405,3695,3549,3135,986,1558,490,204,Tag0,unknown
1499246330717,0,54,1.1865234375000001E-5,38,23,46,26405,3695,3549,3135,986,1558,490,204,Tag0,unknown
1499246330718,0,53,1.1645507812500002E-5,38,23,46,26405,3695,3549,3135,986,1558,490,204,Tag0,unknown
1499246330718,0,59,1.29638671875E-5,38,23,46,26405,3695,3549,3135,986,1558,490,204,Tag0,unknown
1499246330718,0,59,1.29638671875E-5,38,23,46,26405,3695,3549,3135,986,1558,490,204,Tag0,unknown
1499246330718,0,50,1.0986328125E-5,38,23,46,26405,3695,3549,3135,986,1558,490,204,Tag0,unknown
1499246330718,0,52,1.142578125E-5,38,23,46,26405,3695,3549,3135,986,1558,490,204,Tag0,unknown
1499246330718,0,60,1.318359375E-5,38,23,46,26405,3695,3549,3135,986,1558,490,204,Tag0,unknown
1499246330719,0,67,1.4721679687500002E-5,38,23,46,26405,3695,3549,3135,986,1558,490,204,Tag0,unknown
1499246330719,0,77,1.69189453125E-5,38,23,46,26405,3695,3549,3135,986,1558,490,204,Tag0,unknown
1499246330719,0,85,1.86767578125E-5,38,23,46,26405,3695,3549,3135,986,1558,490,204,Tag0,unknown
1499246330719,0,56,1.23046875E-5,38,23,46,26405,3695,3549,3135,986,1558,490,204,Tag0,unknown
1499246330719,0,16,3.515625E-6,38,23,46,26405,3695,3549,3135,986,1558,490,204,Tag0,unknown
1499246330719,0,21,4.614257812500001E-6,38,23,46,26405,3695,3549,3135,986,1558,490,204,Tag0,unknown
1499246330720,0,55,1.20849609375E-5,38,23,46,26405,3695,3549,3135,986,1558,490,204,Tag0,unknown
1499246330720,0,67,1.4721679687500002E-5,38,23,46,26405,3695,3549,3135,986,1558,490,204,Tag0,unknown
1499246330720,0,50,1.0986328125E-5,38,23,46,26405,3695,3549,3135,986,1558,490,204,Tag0,unknown
1499246330720,0,22,4.833984375E-6,38,23,46,26405,3695,3549,3135,986,1558,490,204,Tag0,unknown
1499246330720,0,19,4.1748046875E-6,38,23,46,26405,3695,3549,3135,986,1558,490,204,Tag0,unknown
1499246330720,0,38,8.349609375E-6,38,23,46,26405,3695,3549,3135,986,1558,490,204,Tag0,unknown
1499246330721,0,34,7.4707031250000005E-6,38,23,46,26405,3695,3549,3135,986,1558,490,204,Tag0,unknown
1499246330721,0,4,8.7890625E-7,38,23,46,26405,3695,3549,3135,986,1558,490,204,Tag0,unknown
1499246330721,0,-261,-5.73486328125E-5,38,23,46,26405,3695,3549,3135,986,1558,490,204,Tag0,unknown
1499246330721,0,10,2.197265625E-6,38,23,46,26405,3695,3549,3135,986,1558,490,204,Tag0,unknown
1499246330721,0,43,9.448242187500001E-6,38,23,46,26405,3695,3549,3135,986,1558,490,204,Tag0,unknown
1499246330721,0,69,1.51611328125E-5,38,23,46,26405,3695,3549,3135,986,1558,490,204,Tag0,unknown
1499246330722,0,39,8.5693359375E-6,38,23,46,26405,3695,3549,3135,986,1558,490,204,Tag0,unknown
1499246330722,0,-266,-5.8447265625E-5,38,23,46,26405,3695,3549,3135,986,1558,490,204,Tag0,unknown
1499246330722,0,-273,-5.998535156250001E-5,38,23,46,26405,3695,3549,3135,986,1558,490,204,Tag0,unknown
1499246330722,0,23,5.0537109375E-6,38,23,46,26405,3695,3549,3135,986,1558,490,204,Tag0,unknown
1499246330722,0,49,1.07666015625E-5,38,23,46,26405,3695,3549,3135,986,1558,490,204,Tag0,unknown
1499246330722,0,37,8.1298828125E-6,38,23,46,26405,3695,3549,3135,986,1558,490,204,Tag0,unknown
1499246330723,0,24,5.2734375E-6,38,23,46,26405,3695,3549,3135,986,1558,490,204,Tag0,unknown
1499246330723,0,7,1.5380859375E-6,38,23,46,26405,3695,3549,3135,986,1558,490,204,Tag0,unknown
1499246330723,0,-261,-5.73486328125E-5,38,23,46,26405,3695,3549,3135,986,1558,490,204,Tag0,unknown
1499246330723,0,6,1.318359375E-6,38,23,46,26405,3695,3549,3135,986,1558,490,204,Tag0,unknown
1499246330723,0,35,7.6904296875E-6,38,23,46,26405,3695,3549,3135,986,1558,490,204,Tag0,unknown
1499246330723,0,51,1.1206054687499999E-5,38,23,46,26405,3695,3549,3135,986,1558,490,204,Tag0,unknown
1499246330724,0,37,8.1298828125E-6,38,23,46,26405,3695,3549,3135,986,1558,490,204,Tag0,unknown
1499246330724,0,7,1.5380859375E-6,38,23,46,26405,3695,3549,3135,986,1558,490,204,Tag0,unknown
1499246330756,0,-268,-5.8886718750000006E-5,41,43,46,155414,5688,3595,1947,3174,1632,1799,914,Tag0,unknown
1499246330756,0,-270,-5.9326171875E-5,41,43,46,155414,5688,3595,1947,3174,1632,1799,914,Tag0,unknown
1499246330756,0,-263,-5.7788085937500005E-5,41,43,46,155414,5688,3595,1947,3174,1632,1799,914,Tag0,unknown
1499246330756,0,1,2.197265625E-7,41,43,46,155414,5688,3595,1947,3174,1632,1799,914,Tag0,unknown
1499246330756,0,21,4.614257812500001E-6,41,43,46,155414,5688,3595,1947,3174,1632,1799,914,Tag0,unknown
1499246330757,0,43,9.448242187500001E-6,41,43,46,155414,5688,3595,1947,3174,1632,1799,914,Tag0,unknown
1499246330757,0,60,1.318359375E-5,41,43,46,155414,5688,3595,1947,3174,1632,1799,914,Tag0,unknown
1499246330757,0,64,1.40625E-5,41,43,46,155414,5688,3595,1947,3174,1632,1799,914,Tag0,unknown
1499246330757,0,54,1.1865234375000001E-5,41,43,46,155414,5688,3595,1947,3174,1632,1799,914,Tag0,unknown
1499246330757,0,64,1.40625E-5,41,43,46,155414,5688,3595,1947,3174,1632,1799,914,Tag0,unknown
1499246330757,0,86,1.8896484375000003E-5,41,43,46,155414,5688,3595,1947,3174,1632,1799,914,Tag0,unknown
1499246330758,0,81,1.77978515625E-5,41,43,46,155414,5688,3595,1947,3174,1632,1799,914,Tag0,unknown
1499246330758,0,76,1.669921875E-5,41,43,46,155414,5688,3595,1947,3174,1632,1799,914,Tag0,unknown
1499246330758,0,76,1.669921875E-5,41,43,46,155414,5688,3595,1947,3174,1632,1799,914,Tag0,unknown
1499246330758,0,73,1.6040039062500002E-5,41,43,46,155414,5688,3595,1947,3174,1632,1799,914,Tag0,unknown
1499246330758,0,84,1.8457031250000004E-5,41,43,46,155414,5688,3595,1947,3174,1632,1799,914,Tag0,unknown
1499246330758,0,96,2.109375E-5,41,43,46,155414,5688,3595,1947,3174,1632,1799,914,Tag0,unknown
1499246330759,0,100,2.197265625E-5,41,43,46,155414,5688,3595,1947,3174,1632,1799,914,Tag0,unknown
1499246330759,0,96,2.109375E-5,41,43,46,155414,5688,3595,1947,3174,1632,1799,914,Tag0,unknown
1499246330759,0,85,1.86767578125E-5,41,43,46,155414,5688,3595,1947,3174,1632,1799,914,Tag0,unknown
1499246330759,0,89,1.95556640625E-5,41,43,46,155414,5688,3595,1947,3174,1632,1799,914,Tag0,unknown
1499246330759,0,105,2.30712890625E-5,41,43,46,155414,5688,3595,1947,3174,1632,1799,914,Tag0,unknown
1499246330759,0,116,2.548828125E-5,41,43,46,155414,5688,3595,1947,3174,1632,1799,914,Tag0,unknown
1499246330759,0,123,2.70263671875E-5,41,43,46,155414,5688,3595,1947,3174,1632,1799,914,Tag0,unknown
1499246330760,0,121,2.6586914062500003E-5,41,43,46,155414,5688,3595,1947,3174,1632,1799,914,Tag0,unknown
1499246330760,0,96,2.109375E-5,41,43,46,155414,5688,3595,1947,3174,1632,1799,914,Tag0,unknown
1499246330760,0,81,1.77978515625E-5,41,43,46,155414,5688,3595,1947,3174,1632,1799,914,Tag0,unknown
1499246330760,0,89,1.95556640625E-5,41,43,46,155414,5688,3595,1947,3174,1632,1799,914,Tag0,unknown
1499246330761,0,84,1.8457031250000004E-5,41,43,46,155414,5688,3595,1947,3174,1632,1799,914,Tag0,unknown
1499246330761,0,71,1.56005859375E-5,41,43,46,155414,5688,3595,1947,3174,1632,1799,914,Tag0,unknown
1499246330761,0,65,1.42822265625E-5,41,43,46,155414,5688,3595,1947,3174,1632,1799,914,Tag0,unknown
1499246330761,0,54,1.1865234375000001E-5,41,43,46,155414,5688,3595,1947,3174,1632,1799,914,Tag0,unknown
1499246330761,0,67,1.4721679687500002E-5,41,43,46,155414,5688,3595,1947,3174,1632,1799,914,Tag0,unknown
1499246330761,0,90,1.9775390625E-5,41,43,46,155414,5688,3595,1947,3174,1632,1799,914,Tag0,unknown
1499246330762,0,112,2.4609375E-5,41,43,46,155414,5688,3595,1947,3174,1632,1799,914,Tag0,unknown
1499246330762,0,121,2.6586914062500003E-5,41,43,46,155414,5688,3595,1947,3174,1632,1799,914,Tag0,unknown
1499246330762,0,114,2.5048828125000003E-5,41,43,46,155414,5688,3595,1947,3174,1632,1799,914,Tag0,unknown
1499246330762,0,98,2.1533203125E-5,41,43,46,155414,5688,3595,1947,3174,1632,1799,914,Tag0,unknown
1499246330762,0,88,1.93359375E-5,41,43,46,155414,5688,3595,1947,3174,1632,1799,914,Tag0,unknown
1499246330762,0,101,2.2192382812500002E-5,41,43,46,155414,5688,3595,1947,3174,1632,1799,914,Tag0,unknown
1499246330763,0,119,2.6147460937500004E-5,41,43,46,155414,5688,3595,1947,3174,1632,1799,914,Tag0,unknown
1499246330763,0,115,2.52685546875E-5,41,43,46,155414,5688,3595,1947,3174,1632,1799,914,Tag0,unknown
1499246330763,0,87,1.91162109375E-5,41,43,46,155414,5688,3595,1947,3174,1632,1799,914,Tag0,unknown
1499246330763,0,64,1.40625E-5,41,43,46,155414,5688,3595,1947,3174,1632,1799,914,Tag0,unknown
1499246330763,0,49,1.07666015625E-5,41,43,46,155414,5688,3595,1947,3174,1632,1799,914,Tag0,unknown
1499246330763,0,33,7.2509765625E-6,41,43,46,155414,5688,3595,1947,3174,1632,1799,914,Tag0,unknown
1499246330764,0,38,8.349609375E-6,41,43,46,155414,5688,3595,1947,3174,1632,1799,914,Tag0,unknown
1499246330764,0,57,1.2524414062500001E-5,41,43,46,155414,5688,3595,1947,3174,1632,1799,914,Tag0,unknown
1499246331542,0,58,1.2744140625E-5,41,43,46,155414,5688,3595,1947,3174,1632,1799,914,Tag0,unknown
1499246331542,0,65,1.42822265625E-5,41,43,46,155414,5688,3595,1947,3174,1632,1799,914,Tag0,unknown
1499246331543,0,55,1.20849609375E-5,41,43,46,155414,5688,3595,1947,3174,1632,1799,914,Tag0,unknown
1499246331543,0,50,1.0986328125E-5,41,43,46,155414,5688,3595,1947,3174,1632,1799,914,Tag0,unknown
1499246331544,0,56,1.23046875E-5,41,43,46,155414,5688,3595,1947,3174,1632,1799,914,Tag0,unknown
1499246331544,0,74,1.6259765625E-5,41,43,46,155414,5688,3595,1947,3174,1632,1799,914,Tag0,unknown
1499246331544,0,76,1.669921875E-5,41,43,46,155414,5688,3595,1947,3174,1632,1799,914,Tag0,unknown
1499246331545,0,68,1.4941406250000001E-5,41,43,46,155414,5688,3595,1947,3174,1632,1799,914,Tag0,unknown
1499246331545,0,74,1.6259765625E-5,41,43,46,155414,5688,3595,1947,3174,1632,1799,914,Tag0,unknown
1499246331546,0,68,1.4941406250000001E-5,41,43,46,155414,5688,3595,1947,3174,1632,1799,914,Tag0,unknown
1499246331546,0,33,7.2509765625E-6,41,43,46,155414,5688,3595,1947,3174,1632,1799,914,Tag0,unknown
1499246331547,0,23,5.0537109375E-6,41,43,46,155414,5688,3595,1947,3174,1632,1799,914,Tag0,unknown
1499246331547,0,55,1.20849609375E-5,41,43,46,155414,5688,3595,1947,3174,1632,1799,914,Tag0,unknown
1499246331547,0,69,1.51611328125E-5,41,43,46,155414,5688,3595,1947,3174,1632,1799,914,Tag0,unknown
1499246331548,0,82,1.8017578124999998E-5,41,43,46,155414,5688,3595,1947,3174,1632,1799,914,Tag0,unknown
1499246331548,0,92,2.021484375E-5,41,43,46,155414,5688,3595,1947,3174,1632,1799,914,Tag0,unknown
1499246331548,0,75,1.64794921875E-5,41,43,46,155414,5688,3595,1947,3174,1632,1799,914,Tag0,unknown
1499246331549,0,55,1.20849609375E-5,41,43,46,155414,5688,3595,1947,3174,1632,1799,914,Tag0,unknown
1499246331549,0,73,1.6040039062500002E-5,41,43,46,155414,5688,3595,1947,3174,1632,1799,914,Tag0,unknown
1499246331549,0,99,2.1752929687500003E-5,41,43,46,155414,5688,3595,1947,3174,1632,1799,914,Tag0,unknown
1499246331550,0,113,2.48291015625E-5,41,43,46,155414,5688,3595,1947,3174,1632,1799,914,Tag0,unknown
1499246331550,0,114,2.5048828125000003E-5,41,43,46,155414,5688,3595,1947,3174,1632,1799,914,Tag0,unknown
1499246331551,0,106,2.3291015625000003E-5,41,43,46,155414,5688,3595,1947,3174,1632,1799,914,Tag0,unknown
1499246331551,0,101,2.2192382812500002E-5,41,43,46,155414,5688,3595,1947,3174,1632,1799,914,Tag0,unknown
1499246331551,0,97,2.13134765625E-5,41,43,46,155414,5688,3595,1947,3174,1632,1799,914,Tag0,unknown
1499246331552,0,96,2.109375E-5,41,43,46,155414,5688,3595,1947,3174,1632,1799,914,Tag0,unknown
1499246331552,0,92,2.021484375E-5,41,43,46,155414,5688,3595,1947,3174,1632,1799,914,Tag0,unknown
1499246331552,0,85,1.86767578125E-5,41,43,46,155414,5688,3595,1947,3174,1632,1799,914,Tag0,unknown
1499246331553,0,60,1.318359375E-5,41,43,46,155414,5688,3595,1947,3174,1632,1799,914,Tag0,unknown
1499246331553,0,44,9.66796875E-6,41,43,46,155414,5688,3595,1947,3174,1632,1799,914,Tag0,unknown
1499246331553,0,55,1.20849609375E-5,41,43,46,155414,5688,3595,1947,3174,1632,1799,914,Tag0,unknown
1499246331554,0,67,1.4721679687500002E-5,41,43,46,155414,5688,3595,1947,3174,1632,1799,914,Tag0,unknown
1499246331554,0,68,1.4941406250000001E-5,41,43,46,155414,5688,3595,1947,3174,1632,1799,914,Tag0,unknown
1499246331554,0,60,1.318359375E-5,41,43,46,155414,5688,3595,1947,3174,1632,1799,914,Tag0,unknown
1499246331555,0,84,1.8457031250000004E-5,41,43,46,155414,5688,3595,1947,3174,1632,1799,914,Tag0,unknown
1499246331555,0,119,2.6147460937500004E-5,41,43,46,155414,5688,3595,1947,3174,1632,1799,914,Tag0,unknown
1499246331556,0,104,2.28515625E-5,41,43,46,155414,5688,3595,1947,3174,1632,1799,914,Tag0,unknown
1499246331556,0,57,1.2524414062500001E-5,41,43,46,155414,5688,3595,1947,3174,1632,1799,914,Tag0,unknown
1499246331557,0,37,8.1298828125E-6,41,43,46,155414,5688,3595,1947,3174,1632,1799,914,Tag0,unknown
1499246331557,0,68,1.4941406250000001E-5,41,43,46,155414,5688,3595,1947,3174,1632,1799,914,Tag0,unknown
1499246331557,0,115,2.52685546875E-5,41,43,46,155414,5688,3595,1947,3174,1632,1799,914,Tag0,unknown
1499246331558,0,101,2.2192382812500002E-5,41,43,46,155414,5688,3595,1947,3174,1632,1799,914,Tag0,unknown
1499246331558,0,77,1.69189453125E-5,41,43,46,155414,5688,3595,1947,3174,1632,1799,914,Tag0,unknown
1499246331558,0,87,1.91162109375E-5,41,43,46,155414,5688,3595,1947,3174,1632,1799,914,Tag0,unknown
1499246331559,0,98,2.1533203125E-5,41,43,46,155414,5688,3595,1947,3174,1632,1799,914,Tag0,unknown
1499246331559,0,100,2.197265625E-5,41,43,46,155414,5688,3595,1947,3174,1632,1799,914,Tag0,unknown
1499246331559,0,83,1.82373046875E-5,41,43,46,155414,5688,3595,1947,3174,1632,1799,914,Tag0,unknown
1499246331560,0,58,1.2744140625E-5,41,43,46,155414,5688,3595,1947,3174,1632,1799,914,Tag0,unknown
1499246331560,0,53,1.1645507812500002E-5,41,43,46,155414,5688,3595,1947,3174,1632,1799,914,Tag0,unknown
1499246331560,0,45,9.8876953125E-6,41,43,46,155414,5688,3595,1947,3174,1632,1799,914,Tag0,unknown
1499246331561,0,43,9.448242187500001E-6,41,43,46,155414,5688,3595,1947,3174,1632,1799,914,Tag0,unknown
1499246331561,0,34,7.4707031250000005E-6,41,43,46,155414,5688,3595,1947,3174,1632,1799,914,Tag0,unknown
1499246331562,0,17,3.7353515625000003E-6,41,43,46,155414,5688,3595,1947,3174,1632,1799,914,Tag0,unknown
1499246331562,0,3,6.591796875E-7,41,43,46,155414,5688,3595,1947,3174,1632,1799,914,Tag0,unknown
1499246331562,0,-258,-5.6689453125000004E-5,41,43,46,155414,5688,3595,1947,3174,1632,1799,914,Tag0,unknown
1499246331563,0,-260,-5.712890625E-5,41,43,46,155414,5688,3595,1947,3174,1632,1799,914,Tag0,unknown
1499246331563,0,10,2.197265625E-6,41,43,46,155414,5688,3595,1947,3174,1632,1799,914,Tag0,unknown
1499246331563,0,32,7.03125E-6,41,43,46,155414,5688,3595,1947,3174,1632,1799,914,Tag0,unknown
1499246331564,0,34,7.4707031250000005E-6,41,43,46,155414,5688,3595,1947,3174,1632,1799,914,Tag0,unknown
1499246331564,0,25,5.4931640625E-6,41,43,46,155414,5688,3595,1947,3174,1632,1799,914,Tag0,unknown
1499246331565,0,38,8.349609375E-6,41,43,46,155414,5688,3595,1947,3174,1632,1799,914,Tag0,unknown
1499246331566,0,72,1.58203125E-5,41,43,46,155414,5688,3595,1947,3174,1632,1799,914,Tag0,unknown
1499246331566,0,68,1.4941406250000001E-5,41,43,46,155414,5688,3595,1947,3174,1632,1799,914,Tag0,unknown
1499246331566,0,49,1.07666015625E-5,41,43,46,155414,5688,3595,1947,3174,1632,1799,914,Tag0,unknown
1499246331567,0,72,1.58203125E-5,41,43,46,155414,5688,3595,1947,3174,1632,1799,914,Tag0,unknown
1499246331567,0,99,2.1752929687500003E-5,41,43,46,155414,5688,3595,1947,3174,1632,1799,914,Tag0,unknown
1499246331568,0,85,1.86767578125E-5,41,43,46,155414,5688,3595,1947,3174,1632,1799,914,Tag0,unknown
1499246331568,0,59,1.29638671875E-5,41,43,46,155414,5688,3595,1947,3174,1632,1799,914,Tag0,unknown
1499246331568,0,51,1.1206054687499999E-5,41,43,46,155414,5688,3595,1947,3174,1632,1799,914,Tag0,unknown
1499246331569,0,64,1.40625E-5,41,43,46,155414,5688,3595,1947,3174,1632,1799,914,Tag0,unknown
1499246331569,0,81,1.77978515625E-5,41,43,46,155414,5688,3595,1947,3174,1632,1799,914,Tag0,unknown
1499246331570,0,56,1.23046875E-5,41,43,46,155414,5688,3595,1947,3174,1632,1799,914,Tag0,unknown
1499246331570,0,-258,-5.6689453125000004E-5,41,43,46,155414,5688,3595,1947,3174,1632,1799,914,Tag0,unknown
1499246331570,0,-299,-6.56982421875E-5,41,43,46,155414,5688,3595,1947,3174,1632,1799,914,Tag0,unknown
1499246331571,0,-277,-6.0864257812500005E-5,41,43,46,155414,5688,3595,1947,3174,1632,1799,914,Tag0,unknown
1499246331571,0,29,6.3720703125E-6,41,43,46,155414,5688,3595,1947,3174,1632,1799,914,Tag0,unknown
1499246331571,0,58,1.2744140625E-5,41,43,46,155414,5688,3595,1947,3174,1632,1799,914,Tag0,unknown
1499246331572,0,42,9.228515625000002E-6,41,43,46,155414,5688,3595,1947,3174,1632,1799,914,Tag0,unknown
1499246331572,0,25,5.4931640625E-6,41,43,46,155414,5688,3595,1947,3174,1632,1799,914,Tag0,unknown
1499246331573,0,35,7.6904296875E-6,41,43,46,155414,5688,3595,1947,3174,1632,1799,914,Tag0,unknown
1499246331573,0,55,1.20849609375E-5,41,43,46,155414,5688,3595,1947,3174,1632,1799,914,Tag0,unknown
1499246331573,0,84,1.8457031250000004E-5,41,43,46,155414,5688,3595,1947,3174,1632,1799,914,Tag0,unknown
1499246331574,0,91,1.99951171875E-5,41,43,46,155414,5688,3595,1947,3174,1632,1799,914,Tag0,unknown
1499246331574,0,83,1.82373046875E-5,41,43,46,155414,5688,3595,1947,3174,1632,1799,914,Tag0,unknown
1499246331574,0,67,1.4721679687500002E-5,41,43,46,155414,5688,3595,1947,3174,1632,1799,914,Tag0,unknown
1499246331575,0,37,8.1298828125E-6,41,43,46,155414,5688,3595,1947,3174,1632,1799,914,Tag0,unknown
1499246331575,0,-261,-5.73486328125E-5,41,43,46,155414,5688,3595,1947,3174,1632,1799,914,Tag0,unknown
1499246331576,0,-284,-6.240234375E-5,41,43,46,155414,5688,3595,1947,3174,1632,1799,914,Tag0,unknown
1499246331576,0,-270,-5.9326171875E-5,41,43,46,155414,5688,3595,1947,3174,1632,1799,914,Tag0,unknown
1499246331577,0,43,9.448242187500001E-6,41,43,46,155414,5688,3595,1947,3174,1632,1799,914,Tag0,unknown
1499246331577,0,102,2.2412109374999998E-5,41,43,46,155414,5688,3595,1947,3174,1632,1799,914,Tag0,unknown
1499246331578,0,96,2.109375E-5,41,43,46,155414,5688,3595,1947,3174,1632,1799,914,Tag0,unknown
1499246331578,0,33,7.2509765625E-6,41,43,46,155414,5688,3595,1947,3174,1632,1799,914,Tag0,unknown
1499246331578,0,-258,-5.6689453125000004E-5,41,43,46,155414,5688,3595,1947,3174,1632,1799,914,Tag0,unknown
1499246331579,0,35,7.6904296875E-6,41,43,46,155414,5688,3595,1947,3174,1632,1799,914,Tag0,unknown
1499246331579,0,48,1.0546875E-5,41,43,46,155414,5688,3595,1947,3174,1632,1799,914,Tag0,unknown
1499246331579,0,27,5.9326171875000005E-6,41,43,46,155414,5688,3595,1947,3174,1632,1799,914,Tag0,unknown
1499246331579,0,16,3.515625E-6,41,43,46,155414,5688,3595,1947,3174,1632,1799,914,Tag0,unknown
1499246331580,0,25,5.4931640625E-6,41,43,46,155414,5688,3595,1947,3174,1632,1799,914,Tag0,unknown
1499246331580,0,27,5.9326171875000005E-6,41,43,46,155414,5688,3595,1947,3174,1632,1799,914,Tag0,unknown
1499246331580,0,12,2.63671875E-6,41,43,46,155414,5688,3595,1947,3174,1632,1799,914,Tag0,unknown
1499246331581,0,-279,-6.13037109375E-5,41,43,46,155414,5688,3595,1947,3174,1632,1799,914,Tag0,unknown
1499246331581,0,-327,-7.18505859375E-5,41,43,46,155414,5688,3595,1947,3174,1632,1799,914,Tag0,unknown
1499246331581,0,-347,-7.62451171875E-5,41,43,46,155414,5688,3595,1947,3174,1632,1799,914,Tag0,unknown
1499246331582,0,-331,-7.272949218750001E-5,41,43,46,155414,5688,3595,1947,3174,1632,1799,914,Tag0,unknown
1499246331582,0,-326,-7.163085937500001E-5,41,43,46,155414,5688,3595,1947,3174,1632,1799,914,Tag0,unknown
1499246331582,0,-338,-7.426757812499999E-5,41,43,46,155414,5688,3595,1947,3174,1632,1799,914,Tag0,unknown
1499246331583,0,-341,-7.492675781250002E-5,41,43,46,155414,5688,3595,1947,3174,1632,1799,914,Tag0,unknown
1499246331583,0,-299,-6.56982421875E-5,41,43,46,155414,5688,3595,1947,3174,1632,1799,914,Tag0,unknown
1499246331583,0,5,1.0986328125E-6,41,43,46,155414,5688,3595,1947,3174,1632,1799,914,Tag0,unknown
1499246331584,0,-266,-5.8447265625E-5,41,43,46,155414,5688,3595,1947,3174,1632,1799,914,Tag0,unknown
1499246331584,0,-328,-7.207031249999999E-5,41,43,46,155414,5688,3595,1947,3174,1632,1799,914,Tag0,unknown
1499246331584,0,-356,-7.822265625E-5,41,43,46,155414,5688,3595,1947,3174,1632,1799,914,Tag0,unknown
1499246331585,0,-328,-7.207031249999999E-5,41,43,46,155414,5688,3595,1947,3174,1632,1799,914,Tag0,unknown
1499246331585,0,-259,-5.69091796875E-5,41,43,46,155414,5688,3595,1947,3174,1632,1799,914,Tag0,unknown
1499246331585,0,59,1.29638671875E-5,41,43,46,155414,5688,3595,1947,3174,1632,1799,914,Tag0,unknown
1499246331586,0,76,1.669921875E-5,41,43,46,155414,5688,3595,1947,3174,1632,1799,914,Tag0,unknown
1499246331586,0,11,2.4169921875E-6,41,43,46,155414,5688,3595,1947,3174,1632,1799,914,Tag0,unknown
1499246331587,0,-315,-6.92138671875E-5,41,43,46,155414,5688,3595,1947,3174,1632,1799,914,Tag0,unknown
1499246331587,0,-294,-6.4599609375E-5,41,43,46,155414,5688,3595,1947,3174,1632,1799,914,Tag0,unknown
1499246331587,0,5,1.0986328125E-6,41,43,46,155414,5688,3595,1947,3174,1632,1799,914,Tag0,unknown
1499246331587,0,-263,-5.7788085937500005E-5,41,43,46,155414,5688,3595,1947,3174,1632,1799,914,Tag0,unknown
1499246331588,0,11,2.4169921875E-6,41,43,46,155414,5688,3595,1947,3174,1632,1799,914,Tag0,unknown
1499246331588,0,6,1.318359375E-6,41,43,46,155414,5688,3595,1947,3174,1632,1799,914,Tag0,unknown
1499246331588,0,-313,-6.87744140625E-5,41,43,46,155414,5688,3595,1947,3174,1632,1799,914,Tag0,unknown
1499246331589,0,-356,-7.822265625E-5,41,43,46,155414,5688,3595,1947,3174,1632,1799,914,Tag0,unknown
1499246331589,0,-337,-7.40478515625E-5,41,43,46,155414,5688,3595,1947,3174,1632,1799,914,Tag0,unknown
1499246331589,0,-301,-6.613769531250001E-5,41,43,46,155414,5688,3595,1947,3174,1632,1799,914,Tag0,unknown
1499246331590,0,-286,-6.2841796875E-5,41,43,46,155414,5688,3595,1947,3174,1632,1799,914,Tag0,unknown
1499246331590,0,-280,-6.15234375E-5,41,43,46,155414,5688,3595,1947,3174,1632,1799,914,Tag0,unknown
1499246331590,0,-259,-5.69091796875E-5,41,43,46,155414,5688,3595,1947,3174,1632,1799,914,Tag0,unknown
1499246331591,0,0,0.0,41,43,46,155414,5688,3595,1947,3174,1632,1799,914,Tag0,unknown
1499246331591,0,-285,-6.26220703125E-5,41,43,46,155414,5688,3595,1947,3174,1632,1799,914,Tag0,unknown
1499246331591,0,-289,-6.35009765625E-5,41,43,46,155414,5688,3595,1947,3174,1632,1799,914,Tag0,unknown
1499246331591,0,-260,-5.712890625E-5,41,43,46,155414,5688,3595,1947,3174,1632,1799,914,Tag0,unknown
1499246331592,0,18,3.955078125E-6,41,43,46,155414,5688,3595,1947,3174,1632,1799,914,Tag0,unknown
1499246331592,0,9,1.9775390625E-6,41,43,46,155414,5688,3595,1947,3174,1632,1799,914,Tag0,unknown
1499246331592,0,-281,-6.17431640625E-5,41,43,46,155414,5688,3595,1947,3174,1632,1799,914,Tag0,unknown
1499246331593,0,-295,-6.48193359375E-5,41,43,46,155414,5688,3595,1947,3174,1632,1799,914,Tag0,unknown
1499246331593,0,-286,-6.2841796875E-5,41,43,46,155414,5688,3595,1947,3174,1632,1799,914,Tag0,unknown
1499246331593,0,-284,-6.240234375E-5,41,43,46,155414,5688,3595,1947,3174,1632,1799,914,Tag0,unknown
1499246331594,0,-298,-6.5478515625E-5,41,43,46,155414,5688,3595,1947,3174,1632,1799,914,Tag0,unknown
1499246331594,0,-292,-6.416015625000001E-5,41,43,46,155414,5688,3595,1947,3174,1632,1799,914,Tag0,unknown
1499246331595,0,-257,-5.64697265625E-5,41,43,46,155414,5688,3595,1947,3174,1632,1799,914,Tag0,unknown
1499246331595,0,32,7.03125E-6,41,43,46,155414,5688,3595,1947,3174,1632,1799,914,Tag0,unknown
1499246331596,0,26,5.712890625E-6,41,43,46,155414,5688,3595,1947,3174,1632,1799,914,Tag0,unknown
1499246331596,0,-293,-6.43798828125E-5,41,43,46,155414,5688,3595,1947,3174,1632,1799,914,Tag0,unknown
1499246331596,0,-358,-7.8662109375E-5,41,43,46,155414,5688,3595,1947,3174,1632,1799,914,Tag0,unknown
1499246331597,0,-339,-7.448730468750001E-5,41,43,46,155414,5688,3595,1947,3174,1632,1799,914,Tag0,unknown
1499246331597,0,-282,-6.1962890625E-5,41,43,46,155414,5688,3595,1947,3174,1632,1799,914,Tag0,unknown
1499246331597,0,12,2.63671875E-6,41,43,46,155414,5688,3595,1947,3174,1632,1799,914,Tag0,unknown
1499246331598,0,21,4.614257812500001E-6,41,43,46,155414,5688,3595,1947,3174,1632,1799,914,Tag0,unknown
1499246331598,0,9,1.9775390625E-6,41,43,46,155414,5688,3595,1947,3174,1632,1799,914,Tag0,unknown
1499246331598,0,1,2.197265625E-7,41,43,46,155414,5688,3595,1947,3174,1632,1799,914,Tag0,unknown
1499246331599,0,2,4.39453125E-7,41,43,46,155414,5688,3595,1947,3174,1632,1799,914,Tag0,unknown
1499246331599,0,28,6.15234375E-6,41,43,46,155414,5688,3595,1947,3174,1632,1799,914,Tag0,unknown
1499246331599,0,61,1.34033203125E-5,41,43,46,155414,5688,3595,1947,3174,1632,1799,914,Tag0,unknown
1499246331600,0,51,1.1206054687499999E-5,41,43,46,155414,5688,3595,1947,3174,1632,1799,914,Tag0,unknown
1499246331600,0,12,2.63671875E-6,41,43,46,155414,5688,3595,1947,3174,1632,1799,914,Tag0,unknown
1499246331600,0,-281,-6.17431640625E-5,41,43,46,155414,5688,3595,1947,3174,1632,1799,914,Tag0,unknown
1499246331600,0,-306,-6.723632812500001E-5,41,43,46,155414,5688,3595,1947,3174,1632,1799,914,Tag0,unknown
1499246331601,0,-281,-6.17431640625E-5,41,43,46,155414,5688,3595,1947,3174,1632,1799,914,Tag0,unknown
1499246331601,0,8,1.7578125E-6,41,43,46,155414,5688,3595,1947,3174,1632,1799,914,Tag0,unknown
1499246331601,0,7,1.5380859375E-6,41,43,46,155414,5688,3595,1947,3174,1632,1799,914,Tag0,unknown
1499246331602,0,-275,-6.04248046875E-5,41,43,46,155414,5688,3595,1947,3174,1632,1799,914,Tag0,unknown
1499246331602,0,-285,-6.26220703125E-5,41,43,46,155414,5688,3595,1947,3174,1632,1799,914,Tag0,unknown
1499246331602,0,-279,-6.13037109375E-5,41,43,46,155414,5688,3595,1947,3174,1632,1799,914,Tag0,unknown
1499246331603,0,2,4.39453125E-7,41,43,46,155414,5688,3595,1947,3174,1632,1799,914,Tag0,unknown
1499246331603,0,64,1.40625E-5,41,43,46,155414,5688,3595,1947,3174,1632,1799,914,Tag0,unknown
1499246331603,0,106,2.3291015625000003E-5,41,43,46,155414,5688,3595,1947,3174,1632,1799,914,Tag0,unknown
1499246331604,0,105,2.30712890625E-5,41,43,46,155414,5688,3595,1947,3174,1632,1799,914,Tag0,unknown
1499246331604,0,101,2.2192382812500002E-5,41,43,46,155414,5688,3595,1947,3174,1632,1799,914,Tag0,unknown
1499246331604,0,93,2.04345703125E-5,41,43,46,155414,5688,3595,1947,3174,1632,1799,914,Tag0,unknown
1499246331604,0,99,2.1752929687500003E-5,41,43,46,155414,5688,3595,1947,3174,1632,1799,914,Tag0,unknown
1499246331605,0,107,2.35107421875E-5,41,43,46,155414,5688,3595,1947,3174,1632,1799,914,Tag0,unknown
1499246331605,0,-125,-2.74658203125E-5,41,43,46,155414,5688,3595,1947,3174,1632,1799,914,Tag0,unknown
1499246331607,0,113,2.48291015625E-5,41,43,46,155414,5688,3595,1947,3174,1632,1799,914,Tag0,unknown
1499246331607,0,42,9.228515625000002E-6,41,43,46,155414,5688,3595,1947,3174,1632,1799,914,Tag0,unknown
1499246331608,0,9,1.9775390625E-6,41,43,46,155414,5688,3595,1947,3174,1632,1799,914,Tag0,unknown
1499246331608,0,34,7.4707031250000005E-6,41,43,46,155414,5688,3595,1947,3174,1632,1799,914,Tag0,unknown
1499246331608,0,69,1.51611328125E-5,41,43,46,155414,5688,3595,1947,3174,1632,1799,914,Tag0,unknown
1499246331609,0,71,1.56005859375E-5,41,43,46,155414,5688,3595,1947,3174,1632,1799,914,Tag0,unknown
1499246331610,0,35,7.6904296875E-6,41,43,46,155414,5688,3595,1947,3174,1632,1799,914,Tag0,unknown
1499246331610,0,16,3.515625E-6,41,43,46,155414,5688,3595,1947,3174,1632,1799,914,Tag0,unknown
1499246331611,0,42,9.228515625000002E-6,41,43,46,155414,5688,3595,1947,3174,1632,1799,914,Tag0,unknown
1499246331611,0,75,1.64794921875E-5,41,43,46,155414,5688,3595,1947,3174,1632,1799,914,Tag0,unknown
1499246331612,0,103,2.26318359375E-5,41,43,46,155414,5688,3595,1947,3174,1632,1799,914,Tag0,unknown
1499246331613,0,-126,-2.7685546875E-5,41,43,46,155414,5688,3595,1947,3174,1632,1799,914,Tag0,unknown
1499246331613,0,106,2.3291015625000003E-5,41,43,46,155414,5688,3595,1947,3174,1632,1799,914,Tag0,unknown
1499246331614,0,87,1.91162109375E-5,41,43,46,155414,5688,3595,1947,3174,1632,1799,914,Tag0,unknown
1499246331614,0,99,2.1752929687500003E-5,41,43,46,155414,5688,3595,1947,3174,1632,1799,914,Tag0,unknown
1499246331615,0,122,2.6806640625E-5,41,43,46,155414,5688,3595,1947,3174,1632,1799,914,Tag0,unknown
1499246331615,0,-101,-2.2192382812500002E-5,41,43,46,155414,5688,3595,1947,3174,1632,1799,914,Tag0,unknown
1499246331616,0,-77,-1.69189453125E-5,41,43,46,155414,5688,3595,1947,3174,1632,1799,914,Tag0,unknown
1499246331617,0,-96,-2.109375E-5,41,43,46,155414,5688,3595,1947,3174,1632,1799,914,Tag0,unknown
1499246331618,0,107,2.35107421875E-5,41,43,46,155414,5688,3595,1947,3174,1632,1799,914,Tag0,unknown
1499246331620,0,88,1.93359375E-5,41,43,46,155414,5688,3595,1947,3174,1632,1799,914,Tag0,unknown
1499246331620,0,66,1.4501953125E-5,41,43,46,155414,5688,3595,1947,3174,1632,1799,914,Tag0,unknown
1499246331621,0,64,1.40625E-5,41,43,46,155414,5688,3595,1947,3174,1632,1799,914,Tag0,unknown
1499246331621,0,84,1.8457031250000004E-5,41,43,46,155414,5688,3595,1947,3174,1632,1799,914,Tag0,unknown
1499246331621,0,97,2.13134765625E-5,41,43,46,155414,5688,3595,1947,3174,1632,1799,914,Tag0,unknown
1499246331622,0,86,1.8896484375000003E-5,41,43,46,155414,5688,3595,1947,3174,1632,1799,914,Tag0,unknown
1499246331622,0,36,7.91015625E-6,41,43,46,155414,5688,3595,1947,3174,1632,1799,914,Tag0,unknown
1499246331622,0,-278,-6.108398437500001E-5,41,43,46,155414,5688,3595,1947,3174,1632,1799,914,Tag0,unknown
1499246331623,0,24,5.2734375E-6,41,43,46,155414,5688,3595,1947,3174,1632,1799,914,Tag0,unknown
1499246331623,0,-110,-2.4169921875E-5,41,43,46,155414,5688,3595,1947,3174,1632,1799,914,Tag0,unknown
1499246331623,0,-53,-1.1645507812500002E-5,41,43,46,155414,5688,3595,1947,3174,1632,1799,914,Tag0,unknown
1499246331624,0,-68,-1.4941406250000001E-5,41,43,46,155414,5688,3595,1947,3174,1632,1799,914,Tag0,unknown
1499246331624,0,-84,-1.8457031250000004E-5,41,43,46,155414,5688,3595,1947,3174,1632,1799,914,Tag0,unknown
1499246331624,0,-64,-1.40625E-5,41,43,46,155414,5688,3595,1947,3174,1632,1799,914,Tag0,unknown
1499246331624,0,-68,-1.4941406250000001E-5,41,43,46,155414,5688,3595,1947,3174,1632,1799,914,Tag0,unknown
1499246331625,0,-79,-1.7358398437500003E-5,41,43,46,155414,5688,3595,1947,3174,1632,1799,914,Tag0,unknown
1499246331625,0,-56,-1.23046875E-5,41,43,46,155414,5688,3595,1947,3174,1632,1799,914,Tag0,unknown
1499246331625,0,-15,-3.2958984375E-6,41,43,46,155414,5688,3595,1947,3174,1632,1799,914,Tag0,unknown
1499246331626,0,265,5.82275390625E-5,41,43,46,155414,5688,3595,1947,3174,1632,1799,914,Tag0,unknown
1499246331626,0,258,5.6689453125000004E-5,41,43,46,155414,5688,3595,1947,3174,1632,1799,914,Tag0,unknown
1499246331626,0,-39,-8.5693359375E-6,41,43,46,155414,5688,3595,1947,3174,1632,1799,914,Tag0,unknown
1499246331627,0,-78,-1.7138671875E-5,41,43,46,155414,5688,3595,1947,3174,1632,1799,914,Tag0,unknown
1499246331627,0,-76,-1.669921875E-5,41,43,46,155414,5688,3595,1947,3174,1632,1799,914,Tag0,unknown
1499246331627,0,-91,-1.99951171875E-5,41,43,46,155414,5688,3595,1947,3174,1632,1799,914,Tag0,unknown
1499246331627,0,-111,-2.43896484375E-5,41,43,46,155414,5688,3595,1947,3174,1632,1799,914,Tag0,unknown
1499246331628,0,-115,-2.52685546875E-5,41,43,46,155414,5688,3595,1947,3174,1632,1799,914,Tag0,unknown
1499246331628,0,-112,-2.4609375E-5,41,43,46,155414,5688,3595,1947,3174,1632,1799,914,Tag0,unknown
1499246331629,0,-107,-2.35107421875E-5,41,43,46,155414,5688,3595,1947,3174,1632,1799,914,Tag0,unknown
1499246331629,0,-119,-2.6147460937500004E-5,41,43,46,155414,5688,3595,1947,3174,1632,1799,914,Tag0,unknown
1499246331629,0,-125,-2.74658203125E-5,41,43,46,155414,5688,3595,1947,3174,1632,1799,914,Tag0,unknown
1499246331630,0,-125,-2.74658203125E-5,41,43,46,155414,5688,3595,1947,3174,1632,1799,914,Tag0,unknown
1499246331630,0,109,2.39501953125E-5,41,43,46,155414,5688,3595,1947,3174,1632,1799,914,Tag0,unknown
1499246331630,0,80,1.7578125E-5,41,43,46,155414,5688,3595,1947,3174,1632,1799,914,Tag0,unknown
1499246331630,0,68,1.4941406250000001E-5,41,43,46,155414,5688,3595,1947,3174,1632,1799,914,Tag0,unknown
1499246331631,0,82,1.8017578124999998E-5,41,43,46,155414,5688,3595,1947,3174,1632,1799,914,Tag0,unknown
1499246331631,0,103,2.26318359375E-5,41,43,46,155414,5688,3595,1947,3174,1632,1799,914,Tag0,unknown
1499246331631,0,102,2.2412109374999998E-5,41,43,46,155414,5688,3595,1947,3174,1632,1799,914,Tag0,unknown
1499246331631,0,59,1.29638671875E-5,41,43,46,155414,5688,3595,1947,3174,1632,1799,914,Tag0,unknown
1499246331632,0,43,9.448242187500001E-6,41,43,46,155414,5688,3595,1947,3174,1632,1799,914,Tag0,unknown
1499246331632,0,101,2.2192382812500002E-5,41,43,46,155414,5688,3595,1947,3174,1632,1799,914,Tag0,unknown
1499246331632,0,-123,-2.70263671875E-5,41,43,46,155414,5688,3595,1947,3174,1632,1799,914,Tag0,unknown
1499246331633,0,116,2.548828125E-5,41,43,46,155414,5688,3595,1947,3174,1632,1799,914,Tag0,unknown
1499246331633,0,74,1.6259765625E-5,41,43,46,155414,5688,3595,1947,3174,1632,1799,914,Tag0,unknown
1499246331633,0,18,3.955078125E-6,41,43,46,155414,5688,3595,1947,3174,1632,1799,914,Tag0,unknown
1499246331633,0,18,3.955078125E-6,41,43,46,155414,5688,3595,1947,3174,1632,1799,914,Tag0,unknown
1499246331634,0,87,1.91162109375E-5,41,43,46,155414,5688,3595,1947,3174,1632,1799,914,Tag0,unknown
1499246331634,0,58,1.2744140625E-5,41,43,46,155414,5688,3595,1947,3174,1632,1799,914,Tag0,unknown
1499246331634,0,-269,-5.9106445312499996E-5,41,43,46,155414,5688,3595,1947,3174,1632,1799,914,Tag0,unknown
1499246331634,0,-267,-5.86669921875E-5,41,43,46,155414,5688,3595,1947,3174,1632,1799,914,Tag0,unknown
1499246331635,0,17,3.7353515625000003E-6,41,43,46,155414,5688,3595,1947,3174,1632,1799,914,Tag0,unknown
1499246331635,0,24,5.2734375E-6,41,43,46,155414,5688,3595,1947,3174,1632,1799,914,Tag0,unknown
1499246331635,0,-257,-5.64697265625E-5,41,43,46,155414,5688,3595,1947,3174,1632,1799,914,Tag0,unknown
1499246331636,0,-278,-6.108398437500001E-5,41,43,46,155414,5688,3595,1947,3174,1632,1799,914,Tag0,unknown
1499246331636,0,-270,-5.9326171875E-5,41,43,46,155414,5688,3595,1947,3174,1632,1799,914,Tag0,unknown
1499246331639,0,12,2.63671875E-6,41,43,46,155414,5688,3595,1947,3174,1632,1799,914,Tag0,unknown
1499246331642,0,48,1.0546875E-5,41,43,46,155414,5688,3595,1947,3174,1632,1799,914,Tag0,unknown
1499246331643,0,40,8.7890625E-6,41,43,46,155414,5688,3595,1947,3174,1632,1799,914,Tag0,unknown
1499246331644,0,17,3.7353515625000003E-6,41,43,46,155414,5688,3595,1947,3174,1632,1799,914,Tag0,unknown
1499246331644,0,28,6.15234375E-6,41,43,46,155414,5688,3595,1947,3174,1632,1799,914,Tag0,unknown
1499246331644,0,54,1.1865234375000001E-5,41,43,46,155414,5688,3595,1947,3174,1632,1799,914,Tag0,unknown
1499246331644,0,65,1.42822265625E-5,41,43,46,155414,5688,3595,1947,3174,1632,1799,914,Tag0,unknown
1499246331645,0,42,9.228515625000002E-6,41,43,46,155414,5688,3595,1947,3174,1632,1799,914,Tag0,unknown
1499246331645,0,28,6.15234375E-6,41,43,46,155414,5688,3595,1947,3174,1632,1799,914,Tag0,unknown
1499246331645,0,75,1.64794921875E-5,41,43,46,155414,5688,3595,1947,3174,1632,1799,914,Tag0,unknown
1499246331645,0,87,1.91162109375E-5,41,43,46,155414,5688,3595,1947,3174,1632,1799,914,Tag0,unknown
1499246331646,0,21,4.614257812500001E-6,41,43,46,155414,5688,3595,1947,3174,1632,1799,914,Tag0,unknown
1499246331646,0,5,1.0986328125E-6,41,43,46,155414,5688,3595,1947,3174,1632,1799,914,Tag0,unknown
1499246331646,0,68,1.4941406250000001E-5,41,43,46,155414,5688,3595,1947,3174,1632,1799,914,Tag0,unknown
1499246331646,0,120,2.63671875E-5,41,43,46,155414,5688,3595,1947,3174,1632,1799,914,Tag0,unknown
1499246331647,0,-118,-2.5927734375E-5,41,43,46,155414,5688,3595,1947,3174,1632,1799,914,Tag0,unknown
1499246331647,0,114,2.5048828125000003E-5,41,43,46,155414,5688,3595,1947,3174,1632,1799,914,Tag0,unknown
1499246331647,0,70,1.5380859375E-5,41,43,46,155414,5688,3595,1947,3174,1632,1799,914,Tag0,unknown
1499246331647,0,88,1.93359375E-5,41,43,46,155414,5688,3595,1947,3174,1632,1799,914,Tag0,unknown
1499246331648,0,-122,-2.6806640625E-5,41,43,46,155414,5688,3595,1947,3174,1632,1799,914,Tag0,unknown
1499246331648,0,-119,-2.6147460937500004E-5,41,43,46,155414,5688,3595,1947,3174,1632,1799,914,Tag0,unknown
1499246331648,0,-126,-2.7685546875E-5,41,43,46,155414,5688,3595,1947,3174,1632,1799,914,Tag0,unknown
1499246331648,0,-105,-2.30712890625E-5,41,43,46,155414,5688,3595,1947,3174,1632,1799,914,Tag0,unknown
1499246331649,0,-71,-1.56005859375E-5,41,43,46,155414,5688,3595,1947,3174,1632,1799,914,Tag0,unknown
1499246331649,0,-86,-1.8896484375000003E-5,41,43,46,155414,5688,3595,1947,3174,1632,1799,914,Tag0,unknown
1499246331649,0,-120,-2.63671875E-5,41,43,46,155414,5688,3595,1947,3174,1632,1799,914,Tag0,unknown
1499246331649,0,119,2.6147460937500004E-5,41,43,46,155414,5688,3595,1947,3174,1632,1799,914,Tag0,unknown
1499246331650,0,-111,-2.43896484375E-5,41,43,46,155414,5688,3595,1947,3174,1632,1799,914,Tag0,unknown
1499246331650,0,-93,-2.04345703125E-5,41,43,46,155414,5688,3595,1947,3174,1632,1799,914,Tag0,unknown
1499246331650,0,-88,-1.93359375E-5,41,43,46,155414,5688,3595,1947,3174,1632,1799,914,Tag0,unknown
1499246331650,0,-116,-2.548828125E-5,41,43,46,155414,5688,3595,1947,3174,1632,1799,914,Tag0,unknown
1499246331651,0,-112,-2.4609375E-5,41,43,46,155414,5688,3595,1947,3174,1632,1799,914,Tag0,unknown
1499246331651,0,-111,-2.43896484375E-5,41,43,46,155414,5688,3595,1947,3174,1632,1799,914,Tag0,unknown
1499246331651,0,123,2.70263671875E-5,41,43,46,155414,5688,3595,1947,3174,1632,1799,914,Tag0,unknown
1499246331651,0,100,2.197265625E-5,41,43,46,155414,5688,3595,1947,3174,1632,1799,914,Tag0,unknown
1499246331651,0,88,1.93359375E-5,41,43,46,155414,5688,3595,1947,3174,1632,1799,914,Tag0,unknown
1499246331652,0,109,2.39501953125E-5,41,43,46,155414,5688,3595,1947,3174,1632,1799,914,Tag0,unknown
1499246331652,0,104,2.28515625E-5,41,43,46,155414,5688,3595,1947,3174,1632,1799,914,Tag0,unknown
1499246331652,0,86,1.8896484375000003E-5,41,43,46,155414,5688,3595,1947,3174,1632,1799,914,Tag0,unknown
1499246331652,0,83,1.82373046875E-5,41,43,46,155414,5688,3595,1947,3174,1632,1799,914,Tag0,unknown
1499246331653,0,98,2.1533203125E-5,41,43,46,155414,5688,3595,1947,3174,1632,1799,914,Tag0,unknown
1499246331653,0,106,2.3291015625000003E-5,41,43,46,155414,5688,3595,1947,3174,1632,1799,914,Tag0,unknown
1499246331653,0,90,1.9775390625E-5,41,43,46,155414,5688,3595,1947,3174,1632,1799,914,Tag0,unknown
1499246331653,0,68,1.4941406250000001E-5,41,43,46,155414,5688,3595,1947,3174,1632,1799,914,Tag0,unknown
1499246331654,0,69,1.51611328125E-5,41,43,46,155414,5688,3595,1947,3174,1632,1799,914,Tag0,unknown
1499246331654,0,83,1.82373046875E-5,41,43,46,155414,5688,3595,1947,3174,1632,1799,914,Tag0,unknown
1499246331654,0,99,2.1752929687500003E-5,41,43,46,155414,5688,3595,1947,3174,1632,1799,914,Tag0,unknown
1499246331654,0,96,2.109375E-5,41,43,46,155414,5688,3595,1947,3174,1632,1799,914,Tag0,unknown
1499246331655,0,74,1.6259765625E-5,41,43,46,155414,5688,3595,1947,3174,1632,1799,914,Tag0,unknown
1499246331655,0,58,1.2744140625E-5,41,43,46,155414,5688,3595,1947,3174,1632,1799,914,Tag0,unknown
1499246331655,0,53,1.1645507812500002E-5,41,43,46,155414,5688,3595,1947,3174,1632,1799,914,Tag0,unknown
1499246331658,0,39,8.5693359375E-6,41,43,46,155414,5688,3595,1947,3174,1632,1799,914,Tag0,unknown
1499246331658,0,37,8.1298828125E-6,41,43,46,155414,5688,3595,1947,3174,1632,1799,914,Tag0,unknown
1499246331658,0,59,1.29638671875E-5,41,43,46,155414,5688,3595,1947,3174,1632,1799,914,Tag0,unknown
1499246331658,0,84,1.8457031250000004E-5,41,43,46,155414,5688,3595,1947,3174,1632,1799,914,Tag0,unknown
1499246331659,0,103,2.26318359375E-5,41,43,46,155414,5688,3595,1947,3174,1632,1799,914,Tag0,unknown
1499246331659,0,113,2.48291015625E-5,41,43,46,155414,5688,3595,1947,3174,1632,1799,914,Tag0,unknown
1499246331660,0,122,2.6806640625E-5,41,43,46,155414,5688,3595,1947,3174,1632,1799,914,Tag0,unknown
1499246331660,0,121,2.6586914062500003E-5,41,43,46,155414,5688,3595,1947,3174,1632,1799,914,Tag0,unknown
1499246331660,0,120,2.63671875E-5,41,43,46,155414,5688,3595,1947,3174,1632,1799,914,Tag0,unknown
1499246331660,0,-106,-2.3291015625000003E-5,41,43,46,155414,5688,3595,1947,3174,1632,1799,914,Tag0,unknown
1499246331660,0,-90,-1.9775390625E-5,41,43,46,155414,5688,3595,1947,3174,1632,1799,914,Tag0,unknown
1499246331661,0,-112,-2.4609375E-5,41,43,46,155414,5688,3595,1947,3174,1632,1799,914,Tag0,unknown
1499246331661,0,121,2.6586914062500003E-5,41,43,46,155414,5688,3595,1947,3174,1632,1799,914,Tag0,unknown
1499246331661,0,-122,-2.6806640625E-5,41,43,46,155414,5688,3595,1947,3174,1632,1799,914,Tag0,unknown
1499246331661,0,-106,-2.3291015625000003E-5,41,43,46,155414,5688,3595,1947,3174,1632,1799,914,Tag0,unknown
1499246331661,0,-91,-1.99951171875E-5,41,43,46,155414,5688,3595,1947,3174,1632,1799,914,Tag0,unknown
1499246331662,0,-79,-1.7358398437500003E-5,41,43,46,155414,5688,3595,1947,3174,1632,1799,914,Tag0,unknown
1499246331662,0,-86,-1.8896484375000003E-5,41,43,46,155414,5688,3595,1947,3174,1632,1799,914,Tag0,unknown
1499246331662,0,-94,-2.0654296875000002E-5,41,43,46,155414,5688,3595,1947,3174,1632,1799,914,Tag0,unknown
1499246331662,0,-88,-1.93359375E-5,41,43,46,155414,5688,3595,1947,3174,1632,1799,914,Tag0,unknown
1499246331663,0,-88,-1.93359375E-5,41,43,46,155414,5688,3595,1947,3174,1632,1799,914,Tag0,unknown
1499246331663,0,-109,-2.39501953125E-5,41,43,46,155414,5688,3595,1947,3174,1632,1799,914,Tag0,unknown
1499246331663,0,116,2.548828125E-5,41,43,46,155414,5688,3595,1947,3174,1632,1799,914,Tag0,unknown
1499246331663,0,113,2.48291015625E-5,41,43,46,155414,5688,3595,1947,3174,1632,1799,914,Tag0,unknown
1499246331663,0,-109,-2.39501953125E-5,41,43,46,155414,5688,3595,1947,3174,1632,1799,914,Tag0,unknown
1499246331664,0,-62,-1.3623046875E-5,41,43,46,155414,5688,3595,1947,3174,1632,1799,914,Tag0,unknown
1499246331664,0,-56,-1.23046875E-5,41,43,46,155414,5688,3595,1947,3174,1632,1799,914,Tag0,unknown
1499246331664,0,-93,-2.04345703125E-5,41,43,46,155414,5688,3595,1947,3174,1632,1799,914,Tag0,unknown
1499246331664,0,-122,-2.6806640625E-5,41,43,46,155414,5688,3595,1947,3174,1632,1799,914,Tag0,unknown
1499246331664,0,120,2.63671875E-5,41,43,46,155414,5688,3595,1947,3174,1632,1799,914,Tag0,unknown
1499246331665,0,119,2.6147460937500004E-5,41,43,46,155414,5688,3595,1947,3174,1632,1799,914,Tag0,unknown
1499246331665,0,-102,-2.2412109374999998E-5,41,43,46,155414,5688,3595,1947,3174,1632,1799,914,Tag0,unknown
1499246331665,0,-87,-1.91162109375E-5,41,43,46,155414,5688,3595,1947,3174,1632,1799,914,Tag0,unknown
1499246331665,0,-115,-2.52685546875E-5,41,43,46,155414,5688,3595,1947,3174,1632,1799,914,Tag0,unknown
1499246331666,0,116,2.548828125E-5,41,43,46,155414,5688,3595,1947,3174,1632,1799,914,Tag0,unknown
1499246331666,0,115,2.52685546875E-5,41,43,46,155414,5688,3595,1947,3174,1632,1799,914,Tag0,unknown
1499246331666,0,106,2.3291015625000003E-5,41,43,46,155414,5688,3595,1947,3174,1632,1799,914,Tag0,unknown
1499246331667,0,100,2.197265625E-5,41,43,46,155414,5688,3595,1947,3174,1632,1799,914,Tag0,unknown
1499246331667,0,112,2.4609375E-5,41,43,46,155414,5688,3595,1947,3174,1632,1799,914,Tag0,unknown
1499246331667,0,-120,-2.63671875E-5,41,43,46,155414,5688,3595,1947,3174,1632,1799,914,Tag0,unknown
1499246331668,0,-96,-2.109375E-5,41,43,46,155414,5688,3595,1947,3174,1632,1799,914,Tag0,unknown
1499246331668,0,-100,-2.197265625E-5,41,43,46,155414,5688,3595,1947,3174,1632,1799,914,Tag0,unknown
1499246331668,0,-107,-2.35107421875E-5,41,43,46,155414,5688,3595,1947,3174,1632,1799,914,Tag0,unknown
1499246331668,0,-112,-2.4609375E-5,41,43,46,155414,5688,3595,1947,3174,1632,1799,914,Tag0,unknown
1499246331669,0,124,2.724609375E-5,41,43,46,155414,5688,3595,1947,3174,1632,1799,914,Tag0,unknown
1499246331669,0,-125,-2.74658203125E-5,41,43,46,155414,5688,3595,1947,3174,1632,1799,914,Tag0,unknown
1499246331669,0,117,2.5708007812499998E-5,41,43,46,155414,5688,3595,1947,3174,1632,1799,914,Tag0,unknown
1499246331669,0,89,1.95556640625E-5,41,43,46,155414,5688,3595,1947,3174,1632,1799,914,Tag0,unknown
1499246331670,0,81,1.77978515625E-5,41,43,46,155414,5688,3595,1947,3174,1632,1799,914,Tag0,unknown
1499246331670,0,105,2.30712890625E-5,41,43,46,155414,5688,3595,1947,3174,1632,1799,914,Tag0,unknown
1499246331670,0,-126,-2.7685546875E-5,41,43,46,155414,5688,3595,1947,3174,1632,1799,914,Tag0,unknown
1499246331670,0,-110,-2.4169921875E-5,41,43,46,155414,5688,3595,1947,3174,1632,1799,914,Tag0,unknown
1499246331670,0,-107,-2.35107421875E-5,41,43,46,155414,5688,3595,1947,3174,1632,1799,914,Tag0,unknown
1499246331671,0,-121,-2.6586914062500003E-5,41,43,46,155414,5688,3595,1947,3174,1632,1799,914,Tag0,unknown
1499246331671,0,114,2.5048828125000003E-5,41,43,46,155414,5688,3595,1947,3174,1632,1799,914,Tag0,unknown
1499246331671,0,87,1.91162109375E-5,41,43,46,155414,5688,3595,1947,3174,1632,1799,914,Tag0,unknown
1499246331671,0,86,1.8896484375000003E-5,41,43,46,155414,5688,3595,1947,3174,1632,1799,914,Tag0,unknown
1499246331671,0,116,2.548828125E-5,41,43,46,155414,5688,3595,1947,3174,1632,1799,914,Tag0,unknown
1499246331672,0,-119,-2.6147460937500004E-5,41,43,46,155414,5688,3595,1947,3174,1632,1799,914,Tag0,unknown
1499246331672,0,-105,-2.30712890625E-5,41,43,46,155414,5688,3595,1947,3174,1632,1799,914,Tag0,unknown
1499246331672,0,-101,-2.2192382812500002E-5,41,43,46,155414,5688,3595,1947,3174,1632,1799,914,Tag0,unknown
1499246331672,0,116,2.548828125E-5,41,43,46,155414,5688,3595,1947,3174,1632,1799,914,Tag0,unknown
1499246331673,0,74,1.6259765625E-5,41,43,46,155414,5688,3595,1947,3174,1632,1799,914,Tag0,unknown
1499246331673,0,87,1.91162109375E-5,41,43,46,155414,5688,3595,1947,3174,1632,1799,914,Tag0,unknown
1499246331673,0,115,2.52685546875E-5,41,43,46,155414,5688,3595,1947,3174,1632,1799,914,Tag0,unknown
1499246331673,0,119,2.6147460937500004E-5,41,43,46,155414,5688,3595,1947,3174,1632,1799,914,Tag0,unknown
1499246331673,0,-128,-2.8125E-5,41,43,46,155414,5688,3595,1947,3174,1632,1799,914,Tag0,unknown
1499246331673,0,-122,-2.6806640625E-5,41,43,46,155414,5688,3595,1947,3174,1632,1799,914,Tag0,unknown
1499246331674,0,-127,-2.79052734375E-5,41,43,46,155414,5688,3595,1947,3174,1632,1799,914,Tag0,unknown
1499246331674,0,101,2.2192382812500002E-5,41,43,46,155414,5688,3595,1947,3174,1632,1799,914,Tag0,unknown
1499246331674,0,96,2.109375E-5,41,43,46,155414,5688,3595,1947,3174,1632,1799,914,Tag0,unknown
1499246331674,0,97,2.13134765625E-5,41,43,46,155414,5688,3595,1947,3174,1632,1799,914,Tag0,unknown
1499246331674,0,106,2.3291015625000003E-5,41,43,46,155414,5688,3595,1947,3174,1632,1799,914,Tag0,unknown
1499246331675,0,118,2.5927734375E-5,41,43,46,155414,5688,3595,1947,3174,1632,1799,914,Tag0,unknown
1499246331675,0,120,2.63671875E-5,41,43,46,155414,5688,3595,1947,3174,1632,1799,914,Tag0,unknown
1499246331685,0,113,2.48291015625E-5,41,43,46,155414,5688,3595,1947,3174,1632,1799,914,Tag0,unknown
1499246331685,0,55,1.20849609375E-5,41,43,46,155414,5688,3595,1947,3174,1632,1799,914,Tag0,unknown
1499246331685,0,8,1.7578125E-6,41,43,46,155414,5688,3595,1947,3174,1632,1799,914,Tag0,unknown
1499246331686,0,37,8.1298828125E-6,41,43,46,155414,5688,3595,1947,3174,1632,1799,914,Tag0,unknown
1499246331686,0,107,2.35107421875E-5,41,43,46,155414,5688,3595,1947,3174,1632,1799,914,Tag0,unknown
1499246331686,0,-118,-2.5927734375E-5,41,43,46,155414,5688,3595,1947,3174,1632,1799,914,Tag0,unknown
1499246331686,0,117,2.5708007812499998E-5,41,43,46,155414,5688,3595,1947,3174,1632,1799,914,Tag0,unknown
1499246331686,0,84,1.8457031250000004E-5,41,43,46,155414,5688,3595,1947,3174,1632,1799,914,Tag0,unknown
1499246331687,0,82,1.8017578124999998E-5,41,43,46,155414,5688,3595,1947,3174,1632,1799,914,Tag0,unknown
1499246331687,0,100,2.197265625E-5,41,43,46,155414,5688,3595,1947,3174,1632,1799,914,Tag0,unknown
1499246331687,0,106,2.3291015625000003E-5,41,43,46,155414,5688,3595,1947,3174,1632,1799,914,Tag0,unknown
1499246331687,0,103,2.26318359375E-5,41,43,46,155414,5688,3595,1947,3174,1632,1799,914,Tag0,unknown
1499246331687,0,105,2.30712890625E-5,41,43,46,155414,5688,3595,1947,3174,1632,1799,914,Tag0,unknown
1499246331688,0,105,2.30712890625E-5,41,43,46,155414,5688,3595,1947,3174,1632,1799,914,Tag0,unknown
1499246331688,0,97,2.13134765625E-5,41,43,46,155414,5688,3595,1947,3174,1632,1799,914,Tag0,unknown
1499246331688,0,91,1.99951171875E-5,41,43,46,155414,5688,3595,1947,3174,1632,1799,914,Tag0,unknown
1499246331688,0,90,1.9775390625E-5,41,43,46,155414,5688,3595,1947,3174,1632,1799,914,Tag0,unknown
1499246331688,0,88,1.93359375E-5,41,43,46,155414,5688,3595,1947,3174,1632,1799,914,Tag0,unknown
1499246331688,0,98,2.1533203125E-5,41,43,46,155414,5688,3595,1947,3174,1632,1799,914,Tag0,unknown
1499246331689,0,112,2.4609375E-5,41,43,46,155414,5688,3595,1947,3174,1632,1799,914,Tag0,unknown
1499246331689,0,99,2.1752929687500003E-5,41,43,46,155414,5688,3595,1947,3174,1632,1799,914,Tag0,unknown
1499246331689,0,72,1.58203125E-5,41,43,46,155414,5688,3595,1947,3174,1632,1799,914,Tag0,unknown
1499246331689,0,60,1.318359375E-5,41,43,46,155414,5688,3595,1947,3174,1632,1799,914,Tag0,unknown
1499246331689,0,57,1.2524414062500001E-5,41,43,46,155414,5688,3595,1947,3174,1632,1799,914,Tag0,unknown
1499246331689,0,58,1.2744140625E-5,41,43,46,155414,5688,3595,1947,3174,1632,1799,914,Tag0,unknown
1499246331689,0,50,1.0986328125E-5,41,43,46,155414,5688,3595,1947,3174,1632,1799,914,Tag0,unknown
1499246331690,0,51,1.1206054687499999E-5,41,43,46,155414,5688,3595,1947,3174,1632,1799,914,Tag0,unknown
1499246331690,0,65,1.42822265625E-5,41,43,46,155414,5688,3595,1947,3174,1632,1799,914,Tag0,unknown
1499246331690,0,74,1.6259765625E-5,41,43,46,155414,5688,3595,1947,3174,1632,1799,914,Tag0,unknown
1499246331690,0,74,1.6259765625E-5,41,43,46,155414,5688,3595,1947,3174,1632,1799,914,Tag0,unknown
1499246331690,0,69,1.51611328125E-5,41,43,46,155414,5688,3595,1947,3174,1632,1799,914,Tag0,unknown
1499246331690,0,83,1.82373046875E-5,41,43,46,155414,5688,3595,1947,3174,1632,1799,914,Tag0,unknown
1499246331691,0,89,1.95556640625E-5,41,43,46,155414,5688,3595,1947,3174,1632,1799,914,Tag0,unknown
1499246331691,0,71,1.56005859375E-5,41,43,46,155414,5688,3595,1947,3174,1632,1799,914,Tag0,unknown
1499246331691,0,73,1.6040039062500002E-5,41,43,46,155414,5688,3595,1947,3174,1632,1799,914,Tag0,unknown
1499246331691,0,84,1.8457031250000004E-5,41,43,46,155414,5688,3595,1947,3174,1632,1799,914,Tag0,unknown
1499246331691,0,71,1.56005859375E-5,41,43,46,155414,5688,3595,1947,3174,1632,1799,914,Tag0,unknown
1499246331691,0,49,1.07666015625E-5,41,43,46,155414,5688,3595,1947,3174,1632,1799,914,Tag0,unknown
1499246331692,0,36,7.91015625E-6,41,43,46,155414,5688,3595,1947,3174,1632,1799,914,Tag0,unknown
1499246331692,0,59,1.29638671875E-5,41,43,46,155414,5688,3595,1947,3174,1632,1799,914,Tag0,unknown
1499246331692,0,105,2.30712890625E-5,41,43,46,155414,5688,3595,1947,3174,1632,1799,914,Tag0,unknown
1499246331692,0,100,2.197265625E-5,41,43,46,155414,5688,3595,1947,3174,1632,1799,914,Tag0,unknown
1499246331692,0,57,1.2524414062500001E-5,41,43,46,155414,5688,3595,1947,3174,1632,1799,914,Tag0,unknown
1499246331693,0,41,9.008789062499999E-6,41,43,46,155414,5688,3595,1947,3174,1632,1799,914,Tag0,unknown
1499246331693,0,61,1.34033203125E-5,41,43,46,155414,5688,3595,1947,3174,1632,1799,914,Tag0,unknown
1499246331693,0,76,1.669921875E-5,41,43,46,155414,5688,3595,1947,3174,1632,1799,914,Tag0,unknown
1499246331693,0,55,1.20849609375E-5,41,43,46,155414,5688,3595,1947,3174,1632,1799,914,Tag0,unknown
1499246331693,0,28,6.15234375E-6,41,43,46,155414,5688,3595,1947,3174,1632,1799,914,Tag0,unknown
1499246331693,0,29,6.3720703125E-6,41,43,46,155414,5688,3595,1947,3174,1632,1799,914,Tag0,unknown
1499246331694,0,64,1.40625E-5,41,43,46,155414,5688,3595,1947,3174,1632,1799,914,Tag0,unknown
1499246331694,0,86,1.8896484375000003E-5,41,43,46,155414,5688,3595,1947,3174,1632,1799,914,Tag0,unknown
1499246331694,0,84,1.8457031250000004E-5,41,43,46,155414,5688,3595,1947,3174,1632,1799,914,Tag0,unknown
1499246331694,0,69,1.51611328125E-5,41,43,46,155414,5688,3595,1947,3174,1632,1799,914,Tag0,unknown
1499246331694,0,64,1.40625E-5,41,43,46,155414,5688,3595,1947,3174,1632,1799,914,Tag0,unknown
1499246331695,0,70,1.5380859375E-5,41,43,46,155414,5688,3595,1947,3174,1632,1799,914,Tag0,unknown
1499246331695,0,88,1.93359375E-5,41,43,46,155414,5688,3595,1947,3174,1632,1799,914,Tag0,unknown
1499246331695,0,85,1.86767578125E-5,41,43,46,155414,5688,3595,1947,3174,1632,1799,914,Tag0,unknown
1499246331695,0,42,9.228515625000002E-6,41,43,46,155414,5688,3595,1947,3174,1632,1799,914,Tag0,unknown
1499246331695,0,12,2.63671875E-6,41,43,46,155414,5688,3595,1947,3174,1632,1799,914,Tag0,unknown
1499246331696,0,25,5.4931640625E-6,41,43,46,155414,5688,3595,1947,3174,1632,1799,914,Tag0,unknown
1499246331696,0,43,9.448242187500001E-6,41,43,46,155414,5688,3595,1947,3174,1632,1799,914,Tag0,unknown
1499246331696,0,43,9.448242187500001E-6,41,43,46,155414,5688,3595,1947,3174,1632,1799,914,Tag0,unknown
1499246331696,0,27,5.9326171875000005E-6,41,43,46,155414,5688,3595,1947,3174,1632,1799,914,Tag0,unknown
1499246331713,0,13,2.8564453125E-6,41,43,46,155414,5688,3595,1947,3174,1632,1799,914,Tag0,unknown
1499246331729,0,35,7.6904296875E-6,41,43,46,155414,5688,3595,1947,3174,1632,1799,914,Tag0,unknown
1499246331729,0,60,1.318359375E-5,41,43,46,155414,5688,3595,1947,3174,1632,1799,914,Tag0,unknown
1499246331729,0,87,1.91162109375E-5,41,43,46,155414,5688,3595,1947,3174,1632,1799,914,Tag0,unknown
1499246331729,0,99,2.1752929687500003E-5,41,43,46,155414,5688,3595,1947,3174,1632,1799,914,Tag0,unknown
1499246331729,0,83,1.82373046875E-5,41,43,46,155414,5688,3595,1947,3174,1632,1799,914,Tag0,unknown
1499246331730,0,43,9.448242187500001E-6,41,43,46,155414,5688,3595,1947,3174,1632,1799,914,Tag0,unknown
1499246331730,0,34,7.4707031250000005E-6,41,43,46,155414,5688,3595,1947,3174,1632,1799,914,Tag0,unknown
1499246331730,0,33,7.2509765625E-6,41,43,46,155414,5688,3595,1947,3174,1632,1799,914,Tag0,unknown
1499246331730,0,51,1.1206054687499999E-5,41,43,46,155414,5688,3595,1947,3174,1632,1799,914,Tag0,unknown
1499246331730,0,73,1.6040039062500002E-5,41,43,46,155414,5688,3595,1947,3174,1632,1799,914,Tag0,unknown
1499246331730,0,66,1.4501953125E-5,41,43,46,155414,5688,3595,1947,3174,1632,1799,914,Tag0,unknown
1499246331730,0,35,7.6904296875E-6,41,43,46,155414,5688,3595,1947,3174,1632,1799,914,Tag0,unknown
1499246331730,0,12,2.63671875E-6,41,43,46,155414,5688,3595,1947,3174,1632,1799,914,Tag0,unknown
1499246331731,0,27,5.9326171875000005E-6,41,43,46,155414,5688,3595,1947,3174,1632,1799,914,Tag0,unknown
1499246331731,0,64,1.40625E-5,41,43,46,155414,5688,3595,1947,3174,1632,1799,914,Tag0,unknown
1499246331731,0,92,2.021484375E-5,41,43,46,155414,5688,3595,1947,3174,1632,1799,914,Tag0,unknown
1499246331731,0,105,2.30712890625E-5,41,43,46,155414,5688,3595,1947,3174,1632,1799,914,Tag0,unknown
1499246331731,0,101,2.2192382812500002E-5,41,43,46,155414,5688,3595,1947,3174,1632,1799,914,Tag0,unknown
1499246331731,0,98,2.1533203125E-5,41,43,46,155414,5688,3595,1947,3174,1632,1799,914,Tag0,unknown
1499246331731,0,76,1.669921875E-5,41,43,46,155414,5688,3595,1947,3174,1632,1799,914,Tag0,unknown
1499246331731,0,58,1.2744140625E-5,41,43,46,155414,5688,3595,1947,3174,1632,1799,914,Tag0,unknown
1499246331731,0,59,1.29638671875E-5,41,43,46,155414,5688,3595,1947,3174,1632,1799,914,Tag0,unknown
1499246331732,0,58,1.2744140625E-5,41,43,46,155414,5688,3595,1947,3174,1632,1799,914,Tag0,unknown
1499246331732,0,59,1.29638671875E-5,41,43,46,155414,5688,3595,1947,3174,1632,1799,914,Tag0,unknown
1499246331743,0,73,1.6040039062500002E-5,54,44,46,141360,13976,387,5549,1406,3698,1622,1010,Tag0,unknown
1499246331743,0,96,2.109375E-5,54,44,46,141360,13976,387,5549,1406,3698,1622,1010,Tag0,unknown
1499246331743,0,96,2.109375E-5,54,44,46,141360,13976,387,5549,1406,3698,1622,1010,Tag0,unknown
1499246331743,0,59,1.29638671875E-5,54,44,46,141360,13976,387,5549,1406,3698,1622,1010,Tag0,unknown
1499246331744,0,33,7.2509765625E-6,54,44,46,141360,13976,387,5549,1406,3698,1622,1010,Tag0,unknown
1499246331744,0,27,5.9326171875000005E-6,54,44,46,141360,13976,387,5549,1406,3698,1622,1010,Tag0,unknown
1499246331744,0,50,1.0986328125E-5,54,44,46,141360,13976,387,5549,1406,3698,1622,1010,Tag0,unknown
1499246331744,0,74,1.6259765625E-5,54,44,46,141360,13976,387,5549,1406,3698,1622,1010,Tag0,unknown
1499246331744,0,89,1.95556640625E-5,54,44,46,141360,13976,387,5549,1406,3698,1622,1010,Tag0,unknown
1499246331744,0,90,1.9775390625E-5,54,44,46,141360,13976,387,5549,1406,3698,1622,1010,Tag0,unknown
1499246331744,0,77,1.69189453125E-5,54,44,46,141360,13976,387,5549,1406,3698,1622,1010,Tag0,unknown
1499246331744,0,65,1.42822265625E-5,54,44,46,141360,13976,387,5549,1406,3698,1622,1010,Tag0,unknown
1499246331748,0,64,1.40625E-5,54,44,46,141360,13976,387,5549,1406,3698,1622,1010,Tag0,unknown
1499246331748,0,75,1.64794921875E-5,54,44,46,141360,13976,387,5549,1406,3698,1622,1010,Tag0,unknown
1499246331748,0,89,1.95556640625E-5,54,44,46,141360,13976,387,5549,1406,3698,1622,1010,Tag0,unknown
1499246331748,0,69,1.51611328125E-5,54,44,46,141360,13976,387,5549,1406,3698,1622,1010,Tag0,unknown
1499246331748,0,53,1.1645507812500002E-5,54,44,46,141360,13976,387,5549,1406,3698,1622,1010,Tag0,unknown
1499246331748,0,73,1.6040039062500002E-5,54,44,46,141360,13976,387,5549,1406,3698,1622,1010,Tag0,unknown
1499246331748,0,102,2.2412109374999998E-5,54,44,46,141360,13976,387,5549,1406,3698,1622,1010,Tag0,unknown
1499246331781,0,89,1.95556640625E-5,54,44,46,141360,13976,387,5549,1406,3698,1622,1010,Tag0,unknown
1499246331797,0,58,1.2744140625E-5,54,44,46,141360,13976,387,5549,1406,3698,1622,1010,Tag0,unknown
1499246331798,0,57,1.2524414062500001E-5,54,44,46,141360,13976,387,5549,1406,3698,1622,1010,Tag0,unknown
1499246331798,0,67,1.4721679687500002E-5,54,44,46,141360,13976,387,5549,1406,3698,1622,1010,Tag0,unknown
1499246331798,0,71,1.56005859375E-5,54,44,46,141360,13976,387,5549,1406,3698,1622,1010,Tag0,unknown
1499246331798,0,51,1.1206054687499999E-5,54,44,46,141360,13976,387,5549,1406,3698,1622,1010,Tag0,unknown
1499246331798,0,19,4.1748046875E-6,54,44,46,141360,13976,387,5549,1406,3698,1622,1010,Tag0,unknown
1499246331798,0,5,1.0986328125E-6,54,44,46,141360,13976,387,5549,1406,3698,1622,1010,Tag0,unknown
1499246331798,0,11,2.4169921875E-6,54,44,46,141360,13976,387,5549,1406,3698,1622,1010,Tag0,unknown
1499246331798,0,34,7.4707031250000005E-6,54,44,46,141360,13976,387,5549,1406,3698,1622,1010,Tag0,unknown
1499246331798,0,52,1.142578125E-5,54,44,46,141360,13976,387,5549,1406,3698,1622,1010,Tag0,unknown
1499246331798,0,45,9.8876953125E-6,54,44,46,141360,13976,387,5549,1406,3698,1622,1010,Tag0,unknown
1499246331799,0,40,8.7890625E-6,54,44,46,141360,13976,387,5549,1406,3698,1622,1010,Tag0,unknown
1499246331799,0,52,1.142578125E-5,54,44,46,141360,13976,387,5549,1406,3698,1622,1010,Tag0,unknown
1499246331799,0,74,1.6259765625E-5,54,44,46,141360,13976,387,5549,1406,3698,1622,1010,Tag0,unknown
1499246331799,0,104,2.28515625E-5,54,44,46,141360,13976,387,5549,1406,3698,1622,1010,Tag0,unknown
1499246331799,0,-126,-2.7685546875E-5,54,44,46,141360,13976,387,5549,1406,3698,1622,1010,Tag0,unknown
1499246331799,0,-125,-2.74658203125E-5,54,44,46,141360,13976,387,5549,1406,3698,1622,1010,Tag0,unknown
1499246331799,0,106,2.3291015625000003E-5,54,44,46,141360,13976,387,5549,1406,3698,1622,1010,Tag0,unknown
1499246331799,0,89,1.95556640625E-5,54,44,46,141360,13976,387,5549,1406,3698,1622,1010,Tag0,unknown
1499246331799,0,87,1.91162109375E-5,54,44,46,141360,13976,387,5549,1406,3698,1622,1010,Tag0,unknown
1499246331800,0,81,1.77978515625E-5,54,44,46,141360,13976,387,5549,1406,3698,1622,1010,Tag0,unknown
1499246331800,0,64,1.40625E-5,54,44,46,141360,13976,387,5549,1406,3698,1622,1010,Tag0,unknown
1499246331800,0,74,1.6259765625E-5,54,44,46,141360,13976,387,5549,1406,3698,1622,1010,Tag0,unknown
1499246331800,0,101,2.2192382812500002E-5,54,44,46,141360,13976,387,5549,1406,3698,1622,1010,Tag0,unknown
1499246331800,0,122,2.6806640625E-5,54,44,46,141360,13976,387,5549,1406,3698,1622,1010,Tag0,unknown
1499246331800,0,-108,-2.3730468750000002E-5,54,44,46,141360,13976,387,5549,1406,3698,1622,1010,Tag0,unknown
1499246331800,0,122,2.6806640625E-5,54,44,46,141360,13976,387,5549,1406,3698,1622,1010,Tag0,unknown
1499246331800,0,74,1.6259765625E-5,54,44,46,141360,13976,387,5549,1406,3698,1622,1010,Tag0,unknown
1499246331800,0,56,1.23046875E-5,54,44,46,141360,13976,387,5549,1406,3698,1622,1010,Tag0,unknown
1499246331801,0,70,1.5380859375E-5,54,44,46,141360,13976,387,5549,1406,3698,1622,1010,Tag0,unknown
1499246331813,0,81,1.77978515625E-5,54,44,46,141360,13976,387,5549,1406,3698,1622,1010,Tag0,unknown
1499246331814,0,77,1.69189453125E-5,54,44,46,141360,13976,387,5549,1406,3698,1622,1010,Tag0,unknown
1499246331814,0,96,2.109375E-5,54,44,46,141360,13976,387,5549,1406,3698,1622,1010,Tag0,unknown
1499246331814,0,115,2.52685546875E-5,54,44,46,141360,13976,387,5549,1406,3698,1622,1010,Tag0,unknown
1499246331814,0,107,2.35107421875E-5,54,44,46,141360,13976,387,5549,1406,3698,1622,1010,Tag0,unknown
1499246331814,0,80,1.7578125E-5,54,44,46,141360,13976,387,5549,1406,3698,1622,1010,Tag0,unknown
1499246331814,0,44,9.66796875E-6,54,44,46,141360,13976,387,5549,1406,3698,1622,1010,Tag0,unknown
1499246331814,0,28,6.15234375E-6,54,44,46,141360,13976,387,5549,1406,3698,1622,1010,Tag0,unknown
1499246331814,0,54,1.1865234375000001E-5,54,44,46,141360,13976,387,5549,1406,3698,1622,1010,Tag0,unknown
1499246331814,0,85,1.86767578125E-5,54,44,46,141360,13976,387,5549,1406,3698,1622,1010,Tag0,unknown
1499246331815,0,77,1.69189453125E-5,54,44,46,141360,13976,387,5549,1406,3698,1622,1010,Tag0,unknown
1499246331815,0,52,1.142578125E-5,54,44,46,141360,13976,387,5549,1406,3698,1622,1010,Tag0,unknown
1499246331815,0,41,9.008789062499999E-6,54,44,46,141360,13976,387,5549,1406,3698,1622,1010,Tag0,unknown
1499246331815,0,35,7.6904296875E-6,54,44,46,141360,13976,387,5549,1406,3698,1622,1010,Tag0,unknown
1499246331815,0,28,6.15234375E-6,54,44,46,141360,13976,387,5549,1406,3698,1622,1010,Tag0,unknown
1499246331815,0,24,5.2734375E-6,54,44,46,141360,13976,387,5549,1406,3698,1622,1010,Tag0,unknown
1499246331815,0,36,7.91015625E-6,54,44,46,141360,13976,387,5549,1406,3698,1622,1010,Tag0,unknown
1499246331815,0,59,1.29638671875E-5,54,44,46,141360,13976,387,5549,1406,3698,1622,1010,Tag0,unknown
1499246331815,0,70,1.5380859375E-5,54,44,46,141360,13976,387,5549,1406,3698,1622,1010,Tag0,unknown
1499246331816,0,91,1.99951171875E-5,54,44,46,141360,13976,387,5549,1406,3698,1622,1010,Tag0,unknown
1499246331816,0,112,2.4609375E-5,54,44,46,141360,13976,387,5549,1406,3698,1622,1010,Tag0,unknown
1499246331816,0,118,2.5927734375E-5,54,44,46,141360,13976,387,5549,1406,3698,1622,1010,Tag0,unknown
1499246331816,0,118,2.5927734375E-5,54,44,46,141360,13976,387,5549,1406,3698,1622,1010,Tag0,unknown
1499246331816,0,115,2.52685546875E-5,54,44,46,141360,13976,387,5549,1406,3698,1622,1010,Tag0,unknown
1499246331816,0,113,2.48291015625E-5,54,44,46,141360,13976,387,5549,1406,3698,1622,1010,Tag0,unknown
1499246331816,0,102,2.2412109374999998E-5,54,44,46,141360,13976,387,5549,1406,3698,1622,1010,Tag0,unknown
1499246331816,0,99,2.1752929687500003E-5,54,44,46,141360,13976,387,5549,1406,3698,1622,1010,Tag0,unknown
1499246331816,0,82,1.8017578124999998E-5,54,44,46,141360,13976,387,5549,1406,3698,1622,1010,Tag0,unknown
1499246331817,0,75,1.64794921875E-5,54,44,46,141360,13976,387,5549,1406,3698,1622,1010,Tag0,unknown
1499246331817,0,73,1.6040039062500002E-5,54,44,46,141360,13976,387,5549,1406,3698,1622,1010,Tag0,unknown
1499246331817,0,58,1.2744140625E-5,54,44,46,141360,13976,387,5549,1406,3698,1622,1010,Tag0,unknown
1499246331817,0,43,9.448242187500001E-6,54,44,46,141360,13976,387,5549,1406,3698,1622,1010,Tag0,unknown
1499246332138,0,50,1.0986328125E-5,54,44,46,141360,13976,387,5549,1406,3698,1622,1010,Tag0,unknown
1499246332139,0,58,1.2744140625E-5,54,44,46,141360,13976,387,5549,1406,3698,1622,1010,Tag0,unknown
1499246332139,0,80,1.7578125E-5,54,44,46,141360,13976,387,5549,1406,3698,1622,1010,Tag0,unknown
1499246332139,0,104,2.28515625E-5,54,44,46,141360,13976,387,5549,1406,3698,1622,1010,Tag0,unknown
1499246332140,0,113,2.48291015625E-5,54,44,46,141360,13976,387,5549,1406,3698,1622,1010,Tag0,unknown
1499246332140,0,102,2.2412109374999998E-5,54,44,46,141360,13976,387,5549,1406,3698,1622,1010,Tag0,unknown
1499246332141,0,96,2.109375E-5,54,44,46,141360,13976,387,5549,1406,3698,1622,1010,Tag0,unknown
1499246332141,0,101,2.2192382812500002E-5,54,44,46,141360,13976,387,5549,1406,3698,1622,1010,Tag0,unknown
1499246332141,0,-124,-2.724609375E-5,54,44,46,141360,13976,387,5549,1406,3698,1622,1010,Tag0,unknown
1499246332142,0,-90,-1.9775390625E-5,54,44,46,141360,13976,387,5549,1406,3698,1622,1010,Tag0,unknown
1499246332142,0,-95,-2.08740234375E-5,54,44,46,141360,13976,387,5549,1406,3698,1622,1010,Tag0,unknown
1499246332142,0,-125,-2.74658203125E-5,54,44,46,141360,13976,387,5549,1406,3698,1622,1010,Tag0,unknown
1499246332143,0,115,2.52685546875E-5,54,44,46,141360,13976,387,5549,1406,3698,1622,1010,Tag0,unknown
1499246332143,0,114,2.5048828125000003E-5,54,44,46,141360,13976,387,5549,1406,3698,1622,1010,Tag0,unknown
1499246332143,0,107,2.35107421875E-5,54,44,46,141360,13976,387,5549,1406,3698,1622,1010,Tag0,unknown
1499246332143,0,117,2.5708007812499998E-5,54,44,46,141360,13976,387,5549,1406,3698,1622,1010,Tag0,unknown
1499246332144,0,-126,-2.7685546875E-5,54,44,46,141360,13976,387,5549,1406,3698,1622,1010,Tag0,unknown
1499246332144,0,-127,-2.79052734375E-5,54,44,46,141360,13976,387,5549,1406,3698,1622,1010,Tag0,unknown
1499246332144,0,118,2.5927734375E-5,54,44,46,141360,13976,387,5549,1406,3698,1622,1010,Tag0,unknown
1499246332145,0,-126,-2.7685546875E-5,54,44,46,141360,13976,387,5549,1406,3698,1622,1010,Tag0,unknown
1499246332145,0,-117,-2.5708007812499998E-5,54,44,46,141360,13976,387,5549,1406,3698,1622,1010,Tag0,unknown
1499246332145,0,118,2.5927734375E-5,54,44,46,141360,13976,387,5549,1406,3698,1622,1010,Tag0,unknown
1499246332146,0,86,1.8896484375000003E-5,54,44,46,141360,13976,387,5549,1406,3698,1622,1010,Tag0,unknown
1499246332146,0,81,1.77978515625E-5,54,44,46,141360,13976,387,5549,1406,3698,1622,1010,Tag0,unknown
1499246332146,0,113,2.48291015625E-5,54,44,46,141360,13976,387,5549,1406,3698,1622,1010,Tag0,unknown
1499246332147,0,-108,-2.3730468750000002E-5,54,44,46,141360,13976,387,5549,1406,3698,1622,1010,Tag0,unknown
1499246332147,0,-111,-2.43896484375E-5,54,44,46,141360,13976,387,5549,1406,3698,1622,1010,Tag0,unknown
1499246332148,0,124,2.724609375E-5,54,44,46,141360,13976,387,5549,1406,3698,1622,1010,Tag0,unknown
1499246332148,0,-127,-2.79052734375E-5,54,44,46,141360,13976,387,5549,1406,3698,1622,1010,Tag0,unknown
1499246332149,0,-118,-2.5927734375E-5,54,44,46,141360,13976,387,5549,1406,3698,1622,1010,Tag0,unknown
1499246332149,0,-126,-2.7685546875E-5,54,44,46,141360,13976,387,5549,1406,3698,1622,1010,Tag0,unknown
1499246332149,0,104,2.28515625E-5,54,44,46,141360,13976,387,5549,1406,3698,1622,1010,Tag0,unknown
1499246332149,0,121,2.6586914062500003E-5,54,44,46,141360,13976,387,5549,1406,3698,1622,1010,Tag0,unknown
1499246332150,0,-117,-2.5708007812499998E-5,54,44,46,141360,13976,387,5549,1406,3698,1622,1010,Tag0,unknown
1499246332150,0,-115,-2.52685546875E-5,54,44,46,141360,13976,387,5549,1406,3698,1622,1010,Tag0,unknown
1499246332150,0,-111,-2.43896484375E-5,54,44,46,141360,13976,387,5549,1406,3698,1622,1010,Tag0,unknown
1499246332151,0,-117,-2.5708007812499998E-5,54,44,46,141360,13976,387,5549,1406,3698,1622,1010,Tag0,unknown
1499246332151,0,-125,-2.74658203125E-5,54,44,46,141360,13976,387,5549,1406,3698,1622,1010,Tag0,unknown
1499246332151,0,119,2.6147460937500004E-5,54,44,46,141360,13976,387,5549,1406,3698,1622,1010,Tag0,unknown
1499246332151,0,122,2.6806640625E-5,54,44,46,141360,13976,387,5549,1406,3698,1622,1010,Tag0,unknown
1499246332152,0,120,2.63671875E-5,54,44,46,141360,13976,387,5549,1406,3698,1622,1010,Tag0,unknown
1499246332152,0,106,2.3291015625000003E-5,54,44,46,141360,13976,387,5549,1406,3698,1622,1010,Tag0,unknown
1499246332152,0,103,2.26318359375E-5,54,44,46,141360,13976,387,5549,1406,3698,1622,1010,Tag0,unknown
1499246332153,0,96,2.109375E-5,54,44,46,141360,13976,387,5549,1406,3698,1622,1010,Tag0,unknown
1499246332153,0,65,1.42822265625E-5,54,44,46,141360,13976,387,5549,1406,3698,1622,1010,Tag0,unknown
1499246332153,0,45,9.8876953125E-6,54,44,46,141360,13976,387,5549,1406,3698,1622,1010,Tag0,unknown
1499246332153,0,64,1.40625E-5,54,44,46,141360,13976,387,5549,1406,3698,1622,1010,Tag0,unknown
1499246332154,0,96,2.109375E-5,54,44,46,141360,13976,387,5549,1406,3698,1622,1010,Tag0,unknown
1499246332154,0,116,2.548828125E-5,54,44,46,141360,13976,387,5549,1406,3698,1622,1010,Tag0,unknown
1499246332154,0,113,2.48291015625E-5,54,44,46,141360,13976,387,5549,1406,3698,1622,1010,Tag0,unknown
1499246332155,0,87,1.91162109375E-5,54,44,46,141360,13976,387,5549,1406,3698,1622,1010,Tag0,unknown
1499246332155,0,32,7.03125E-6,54,44,46,141360,13976,387,5549,1406,3698,1622,1010,Tag0,unknown
1499246332155,0,-263,-5.7788085937500005E-5,54,44,46,141360,13976,387,5549,1406,3698,1622,1010,Tag0,unknown
1499246332156,0,6,1.318359375E-6,54,44,46,141360,13976,387,5549,1406,3698,1622,1010,Tag0,unknown
1499246332156,0,48,1.0546875E-5,54,44,46,141360,13976,387,5549,1406,3698,1622,1010,Tag0,unknown
1499246332156,0,85,1.86767578125E-5,54,44,46,141360,13976,387,5549,1406,3698,1622,1010,Tag0,unknown
1499246332157,0,99,2.1752929687500003E-5,54,44,46,141360,13976,387,5549,1406,3698,1622,1010,Tag0,unknown
1499246332157,0,82,1.8017578124999998E-5,54,44,46,141360,13976,387,5549,1406,3698,1622,1010,Tag0,unknown
1499246332157,0,68,1.4941406250000001E-5,54,44,46,141360,13976,387,5549,1406,3698,1622,1010,Tag0,unknown
1499246332158,0,80,1.7578125E-5,54,44,46,141360,13976,387,5549,1406,3698,1622,1010,Tag0,unknown
1499246332158,0,102,2.2412109374999998E-5,54,44,46,141360,13976,387,5549,1406,3698,1622,1010,Tag0,unknown
1499246332158,0,122,2.6806640625E-5,54,44,46,141360,13976,387,5549,1406,3698,1622,1010,Tag0,unknown
1499246332159,0,122,2.6806640625E-5,54,44,46,141360,13976,387,5549,1406,3698,1622,1010,Tag0,unknown
1499246332159,0,112,2.4609375E-5,54,44,46,141360,13976,387,5549,1406,3698,1622,1010,Tag0,unknown
1499246332159,0,107,2.35107421875E-5,54,44,46,141360,13976,387,5549,1406,3698,1622,1010,Tag0,unknown
1499246332159,0,102,2.2412109374999998E-5,54,44,46,141360,13976,387,5549,1406,3698,1622,1010,Tag0,unknown
1499246332160,0,92,2.021484375E-5,54,44,46,141360,13976,387,5549,1406,3698,1622,1010,Tag0,unknown
1499246332160,0,81,1.77978515625E-5,54,44,46,141360,13976,387,5549,1406,3698,1622,1010,Tag0,unknown
1499246332160,0,73,1.6040039062500002E-5,54,44,46,141360,13976,387,5549,1406,3698,1622,1010,Tag0,unknown
1499246332161,0,84,1.8457031250000004E-5,54,44,46,141360,13976,387,5549,1406,3698,1622,1010,Tag0,unknown
1499246332161,0,96,2.109375E-5,54,44,46,141360,13976,387,5549,1406,3698,1622,1010,Tag0,unknown
1499246332161,0,97,2.13134765625E-5,54,44,46,141360,13976,387,5549,1406,3698,1622,1010,Tag0,unknown
1499246332161,0,91,1.99951171875E-5,54,44,46,141360,13976,387,5549,1406,3698,1622,1010,Tag0,unknown
1499246332162,0,97,2.13134765625E-5,54,44,46,141360,13976,387,5549,1406,3698,1622,1010,Tag0,unknown
1499246332162,0,92,2.021484375E-5,54,44,46,141360,13976,387,5549,1406,3698,1622,1010,Tag0,unknown
1499246332162,0,75,1.64794921875E-5,54,44,46,141360,13976,387,5549,1406,3698,1622,1010,Tag0,unknown
1499246332163,0,56,1.23046875E-5,54,44,46,141360,13976,387,5549,1406,3698,1622,1010,Tag0,unknown
1499246332163,0,39,8.5693359375E-6,54,44,46,141360,13976,387,5549,1406,3698,1622,1010,Tag0,unknown
1499246332163,0,24,5.2734375E-6,54,44,46,141360,13976,387,5549,1406,3698,1622,1010,Tag0,unknown
1499246332163,0,29,6.3720703125E-6,54,44,46,141360,13976,387,5549,1406,3698,1622,1010,Tag0,unknown
1499246332164,0,51,1.1206054687499999E-5,54,44,46,141360,13976,387,5549,1406,3698,1622,1010,Tag0,unknown
1499246332164,0,41,9.008789062499999E-6,54,44,46,141360,13976,387,5549,1406,3698,1622,1010,Tag0,unknown
1499246332164,0,35,7.6904296875E-6,54,44,46,141360,13976,387,5549,1406,3698,1622,1010,Tag0,unknown
1499246332165,0,58,1.2744140625E-5,54,44,46,141360,13976,387,5549,1406,3698,1622,1010,Tag0,unknown
1499246332165,0,71,1.56005859375E-5,54,44,46,141360,13976,387,5549,1406,3698,1622,1010,Tag0,unknown
1499246332166,0,51,1.1206054687499999E-5,54,44,46,141360,13976,387,5549,1406,3698,1622,1010,Tag0,unknown
1499246332166,0,44,9.66796875E-6,54,44,46,141360,13976,387,5549,1406,3698,1622,1010,Tag0,unknown
1499246332166,0,48,1.0546875E-5,54,44,46,141360,13976,387,5549,1406,3698,1622,1010,Tag0,unknown
1499246332167,0,36,7.91015625E-6,54,44,46,141360,13976,387,5549,1406,3698,1622,1010,Tag0,unknown
1499246332167,0,25,5.4931640625E-6,54,44,46,141360,13976,387,5549,1406,3698,1622,1010,Tag0,unknown
1499246332167,0,9,1.9775390625E-6,54,44,46,141360,13976,387,5549,1406,3698,1622,1010,Tag0,unknown
1499246332167,0,4,8.7890625E-7,54,44,46,141360,13976,387,5549,1406,3698,1622,1010,Tag0,unknown
1499246332168,0,9,1.9775390625E-6,54,44,46,141360,13976,387,5549,1406,3698,1622,1010,Tag0,unknown
1499246332168,0,5,1.0986328125E-6,54,44,46,141360,13976,387,5549,1406,3698,1622,1010,Tag0,unknown
1499246332168,0,8,1.7578125E-6,54,44,46,141360,13976,387,5549,1406,3698,1622,1010,Tag0,unknown
1499246332169,0,23,5.0537109375E-6,54,44,46,141360,13976,387,5549,1406,3698,1622,1010,Tag0,unknown
1499246332169,0,28,6.15234375E-6,54,44,46,141360,13976,387,5549,1406,3698,1622,1010,Tag0,unknown
1499246332169,0,27,5.9326171875000005E-6,54,44,46,141360,13976,387,5549,1406,3698,1622,1010,Tag0,unknown
1499246332169,0,35,7.6904296875E-6,54,44,46,141360,13976,387,5549,1406,3698,1622,1010,Tag0,unknown
1499246332170,0,36,7.91015625E-6,54,44,46,141360,13976,387,5549,1406,3698,1622,1010,Tag0,unknown
1499246332170,0,40,8.7890625E-6,54,44,46,141360,13976,387,5549,1406,3698,1622,1010,Tag0,unknown
1499246332170,0,51,1.1206054687499999E-5,54,44,46,141360,13976,387,5549,1406,3698,1622,1010,Tag0,unknown
1499246332171,0,56,1.23046875E-5,54,44,46,141360,13976,387,5549,1406,3698,1622,1010,Tag0,unknown
1499246332171,0,71,1.56005859375E-5,54,44,46,141360,13976,387,5549,1406,3698,1622,1010,Tag0,unknown
1499246332171,0,74,1.6259765625E-5,54,44,46,141360,13976,387,5549,1406,3698,1622,1010,Tag0,unknown
1499246332171,0,58,1.2744140625E-5,54,44,46,141360,13976,387,5549,1406,3698,1622,1010,Tag0,unknown
1499246332172,0,57,1.2524414062500001E-5,54,44,46,141360,13976,387,5549,1406,3698,1622,1010,Tag0,unknown
1499246332172,0,51,1.1206054687499999E-5,54,44,46,141360,13976,387,5549,1406,3698,1622,1010,Tag0,unknown
1499246332178,0,29,6.3720703125E-6,54,44,46,141360,13976,387,5549,1406,3698,1622,1010,Tag0,unknown
1499246332178,0,25,5.4931640625E-6,54,44,46,141360,13976,387,5549,1406,3698,1622,1010,Tag0,unknown
1499246332179,0,17,3.7353515625000003E-6,54,44,46,141360,13976,387,5549,1406,3698,1622,1010,Tag0,unknown
1499246332179,0,20,4.39453125E-6,54,44,46,141360,13976,387,5549,1406,3698,1622,1010,Tag0,unknown
1499246332179,0,57,1.2524414062500001E-5,54,44,46,141360,13976,387,5549,1406,3698,1622,1010,Tag0,unknown
1499246332179,0,68,1.4941406250000001E-5,54,44,46,141360,13976,387,5549,1406,3698,1622,1010,Tag0,unknown
1499246332180,0,51,1.1206054687499999E-5,54,44,46,141360,13976,387,5549,1406,3698,1622,1010,Tag0,unknown
1499246332180,0,27,5.9326171875000005E-6,54,44,46,141360,13976,387,5549,1406,3698,1622,1010,Tag0,unknown
1499246332180,0,23,5.0537109375E-6,54,44,46,141360,13976,387,5549,1406,3698,1622,1010,Tag0,unknown
1499246332181,0,38,8.349609375E-6,54,44,46,141360,13976,387,5549,1406,3698,1622,1010,Tag0,unknown
1499246332181,0,45,9.8876953125E-6,54,44,46,141360,13976,387,5549,1406,3698,1622,1010,Tag0,unknown
1499246332182,0,37,8.1298828125E-6,54,44,46,141360,13976,387,5549,1406,3698,1622,1010,Tag0,unknown
1499246332182,0,35,7.6904296875E-6,54,44,46,141360,13976,387,5549,1406,3698,1622,1010,Tag0,unknown
1499246332215,0,43,9.448242187500001E-6,54,44,46,141360,13976,387,5549,1406,3698,1622,1010,Tag0,unknown
1499246332216,0,43,9.448242187500001E-6,54,44,46,141360,13976,387,5549,1406,3698,1622,1010,Tag0,unknown
1499246332229,0,42,9.228515625000002E-6,54,44,46,141360,13976,387,5549,1406,3698,1622,1010,Tag0,unknown
1499246332230,0,35,7.6904296875E-6,54,44,46,141360,13976,387,5549,1406,3698,1622,1010,Tag0,unknown
1499246332230,0,19,4.1748046875E-6,54,44,46,141360,13976,387,5549,1406,3698,1622,1010,Tag0,unknown
1499246332230,0,5,1.0986328125E-6,54,44,46,141360,13976,387,5549,1406,3698,1622,1010,Tag0,unknown
1499246332231,0,22,4.833984375E-6,54,44,46,141360,13976,387,5549,1406,3698,1622,1010,Tag0,unknown
1499246332231,0,41,9.008789062499999E-6,54,44,46,141360,13976,387,5549,1406,3698,1622,1010,Tag0,unknown
1499246332232,0,43,9.448242187500001E-6,54,44,46,141360,13976,387,5549,1406,3698,1622,1010,Tag0,unknown
1499246332232,0,39,8.5693359375E-6,54,44,46,141360,13976,387,5549,1406,3698,1622,1010,Tag0,unknown
1499246332233,0,44,9.66796875E-6,54,44,46,141360,13976,387,5549,1406,3698,1622,1010,Tag0,unknown
1499246332233,0,58,1.2744140625E-5,54,44,46,141360,13976,387,5549,1406,3698,1622,1010,Tag0,unknown
1499246332233,0,66,1.4501953125E-5,54,44,46,141360,13976,387,5549,1406,3698,1622,1010,Tag0,unknown
1499246332234,0,61,1.34033203125E-5,54,44,46,141360,13976,387,5549,1406,3698,1622,1010,Tag0,unknown
1499246332234,0,48,1.0546875E-5,54,44,46,141360,13976,387,5549,1406,3698,1622,1010,Tag0,unknown
1499246332234,0,32,7.03125E-6,54,44,46,141360,13976,387,5549,1406,3698,1622,1010,Tag0,unknown
