timestampMs,poorSignal,eegRawValue,eegRawValueVolts,attention,meditation,blinkStrength,delta,theta,alphaLow,alphaHigh,betaLow,betaHigh,gammaLow,gammaMid,tagEvent,location
1499246561251,0,102,2.2412109374999998E-5,27,53,53,287726,72106,93954,22627,17119,16757250,25555,8529,Tag0,unknown
1499246561251,0,84,1.8457031250000004E-5,27,53,53,287726,72106,93954,22627,17119,16757250,25555,8529,Tag0,unknown
1499246561251,0,69,1.51611328125E-5,27,53,53,287726,72106,93954,22627,17119,16757250,25555,8529,Tag0,unknown
1499246561252,0,86,1.8896484375000003E-5,27,53,53,287726,72106,93954,22627,17119,16757250,25555,8529,Tag0,unknown
1499246561252,0,58,1.2744140625E-5,27,53,53,287726,72106,93954,22627,17119,16757250,25555,8529,Tag0,unknown
1499246561252,0,12,2.63671875E-6,27,53,53,287726,72106,93954,22627,17119,16757250,25555,8529,Tag0,unknown
1499246561252,0,68,1.4941406250000001E-5,27,53,53,287726,72106,93954,22627,17119,16757250,25555,8529,Tag0,unknown
1499246561252,0,-93,-2.04345703125E-5,27,53,53,287726,72106,93954,22627,17119,16757250,25555,8529,Tag0,unknown
1499246561252,0,-63,-1.38427734375E-5,27,53,53,287726,72106,93954,22627,17119,16757250,25555,8529,Tag0,unknown
1499246561253,0,-86,-1.8896484375000003E-5,27,53,53,287726,72106,93954,22627,17119,16757250,25555,8529,Tag0,unknown
1499246561253,0,-109,-2.39501953125E-5,27,53,53,287726,72106,93954,22627,17119,16757250,25555,8529,Tag0,unknown
1499246561253,0,101,2.2192382812500002E-5,27,53,53,287726,72106,93954,22627,17119,16757250,25555,8529,Tag0,unknown
1499246561253,0,19,4.1748046875E-6,27,53,53,287726,72106,93954,22627,17119,16757250,25555,8529,Tag0,unknown
1499246561253,0,-300,-6.591796875E-5,27,53,53,287726,72106,93954,22627,17119,16757250,25555,8529,Tag0,unknown
1499246561253,0,-314,-6.8994140625E-5,27,53,53,287726,72106,93954,22627,17119,16757250,25555,8529,Tag0,unknown
1499246561254,0,-263,-5.7788085937500005E-5,27,53,53,287726,72106,93954,22627,17119,16757250,25555,8529,Tag0,unknown
1499246561254,0,45,9.8876953125E-6,27,53,53,287726,72106,93954,22627,17119,16757250,25555,8529,Tag0,unknown
1499246561254,0,57,1.2524414062500001E-5,27,53,53,287726,72106,93954,22627,17119,16757250,25555,8529,Tag0,unknown
1499246561254,0,41,9.008789062499999E-6,27,53,53,287726,72106,93954,22627,17119,16757250,25555,8529,Tag0,unknown
1499246561254,0,33,7.2509765625E-6,27,53,53,287726,72106,93954,22627,17119,16757250,25555,8529,Tag0,unknown
1499246561254,0,17,3.7353515625000003E-6,27,53,53,287726,72106,93954,22627,17119,16757250,25555,8529,Tag0,unknown
1499246561254,0,17,3.7353515625000003E-6,27,53,53,287726,72106,93954,22627,17119,16757250,25555,8529,Tag0,unknown
1499246561255,0,44,9.66796875E-6,27,53,53,287726,72106,93954,22627,17119,16757250,25555,8529,Tag0,unknown
1499246561255,0,68,1.4941406250000001E-5,27,53,53,287726,72106,93954,22627,17119,16757250,25555,8529,Tag0,unknown
1499246561255,0,65,1.42822265625E-5,27,53,53,287726,72106,93954,22627,17119,16757250,25555,8529,Tag0,unknown
1499246561255,0,40,8.7890625E-6,27,53,53,287726,72106,93954,22627,17119,16757250,25555,8529,Tag0,unknown
1499246561255,0,44,9.66796875E-6,27,53,53,287726,72106,93954,22627,17119,16757250,25555,8529,Tag0,unknown
1499246561255,0,85,1.86767578125E-5,27,53,53,287726,72106,93954,22627,17119,16757250,25555,8529,Tag0,unknown
1499246561256,0,108,2.3730468750000002E-5,27,53,53,287726,72106,93954,22627,17119,16757250,25555,8529,Tag0,unknown
1499246561256,0,102,2.2412109374999998E-5,27,53,53,287726,72106,93954,22627,17119,16757250,25555,8529,Tag0,unknown
1499246561256,0,61,1.34033203125E-5,27,53,53,287726,72106,93954,22627,17119,16757250,25555,8529,Tag0,unknown
1499246561256,0,40,8.7890625E-6,27,53,53,287726,72106,93954,22627,17119,16757250,25555,8529,Tag0,unknown
1499246561256,0,65,1.42822265625E-5,27,53,53,287726,72106,93954,22627,17119,16757250,25555,8529,Tag0,unknown
1499246561256,0,67,1.4721679687500002E-5,27,53,53,287726,72106,93954,22627,17119,16757250,25555,8529,Tag0,unknown
1499246561256,0,69,1.51611328125E-5,27,53,53,287726,72106,93954,22627,17119,16757250,25555,8529,Tag0,unknown
1499246561257,0,105,2.30712890625E-5,27,53,53,287726,72106,93954,22627,17119,16757250,25555,8529,Tag0,unknown
1499246561257,0,113,2.48291015625E-5,27,53,53,287726,72106,93954,22627,17119,16757250,25555,8529,Tag0,unknown
1499246561257,0,81,1.77978515625E-5,27,53,53,287726,72106,93954,22627,17119,16757250,25555,8529,Tag0,unknown
1499246561257,0,53,1.1645507812500002E-5,27,53,53,287726,72106,93954,22627,17119,16757250,25555,8529,Tag0,unknown
1499246561257,0,54,1.1865234375000001E-5,27,53,53,287726,72106,93954,22627,17119,16757250,25555,8529,Tag0,unknown
1499246561257,0,43,9.448242187500001E-6,27,53,53,287726,72106,93954,22627,17119,16757250,25555,8529,Tag0,unknown
1499246561257,0,23,5.0537109375E-6,27,53,53,287726,72106,93954,22627,17119,16757250,25555,8529,Tag0,unknown
1499246561258,0,50,1.0986328125E-5,27,53,53,287726,72106,93954,22627,17119,16757250,25555,8529,Tag0,unknown
1499246561258,0,109,2.39501953125E-5,27,53,53,287726,72106,93954,22627,17119,16757250,25555,8529,Tag0,unknown
1499246561258,0,-120,-2.63671875E-5,27,53,53,287726,72106,93954,22627,17119,16757250,25555,8529,Tag0,unknown
1499246561258,0,-105,-2.30712890625E-5,27,53,53,287726,72106,93954,22627,17119,16757250,25555,8529,Tag0,unknown
1499246561258,0,-107,-2.35107421875E-5,27,53,53,287726,72106,93954,22627,17119,16757250,25555,8529,Tag0,unknown
1499246561258,0,91,1.99951171875E-5,27,53,53,287726,72106,93954,22627,17119,16757250,25555,8529,Tag0,unknown
1499246561258,0,43,9.448242187500001E-6,27,53,53,287726,72106,93954,22627,17119,16757250,25555,8529,Tag0,unknown
1499246561259,0,35,7.6904296875E-6,27,53,53,287726,72106,93954,22627,17119,16757250,25555,8529,Tag0,unknown
1499246561259,0,81,1.77978515625E-5,27,53,53,287726,72106,93954,22627,17119,16757250,25555,8529,Tag0,unknown
1499246561259,0,-116,-2.548828125E-5,27,53,53,287726,72106,93954,22627,17119,16757250,25555,8529,Tag0,unknown
1499246561259,0,-103,-2.26318359375E-5,27,53,53,287726,72106,93954,22627,17119,16757250,25555,8529,Tag0,unknown
1499246561259,0,97,2.13134765625E-5,27,53,53,287726,72106,93954,22627,17119,16757250,25555,8529,Tag0,unknown
1499246561259,0,27,5.9326171875000005E-6,27,53,53,287726,72106,93954,22627,17119,16757250,25555,8529,Tag0,unknown
1499246561260,0,-259,-5.69091796875E-5,27,53,53,287726,72106,93954,22627,17119,16757250,25555,8529,Tag0,unknown
1499246561260,0,-260,-5.712890625E-5,27,53,53,287726,72106,93954,22627,17119,16757250,25555,8529,Tag0,unknown
1499246561260,0,27,5.9326171875000005E-6,27,53,53,287726,72106,93954,22627,17119,16757250,25555,8529,Tag0,unknown
1499246561260,0,71,1.56005859375E-5,27,53,53,287726,72106,93954,22627,17119,16757250,25555,8529,Tag0,unknown
1499246561260,0,59,1.29638671875E-5,27,53,53,287726,72106,93954,22627,17119,16757250,25555,8529,Tag0,unknown
1499246561260,0,22,4.833984375E-6,27,53,53,287726,72106,93954,22627,17119,16757250,25555,8529,Tag0,unknown
1499246561261,0,-265,-5.82275390625E-5,27,53,53,287726,72106,93954,22627,17119,16757250,25555,8529,Tag0,unknown
1499246561261,0,-267,-5.86669921875E-5,27,53,53,287726,72106,93954,22627,17119,16757250,25555,8529,Tag0,unknown
1499246561261,0,17,3.7353515625000003E-6,27,53,53,287726,72106,93954,22627,17119,16757250,25555,8529,Tag0,unknown
1499246561261,0,65,1.42822265625E-5,27,53,53,287726,72106,93954,22627,17119,16757250,25555,8529,Tag0,unknown
1499246561261,0,96,2.109375E-5,27,53,53,287726,72106,93954,22627,17119,16757250,25555,8529,Tag0,unknown
1499246561261,0,44,9.66796875E-6,27,53,53,287726,72106,93954,22627,17119,16757250,25555,8529,Tag0,unknown
1499246561261,0,-261,-5.73486328125E-5,27,53,53,287726,72106,93954,22627,17119,16757250,25555,8529,Tag0,unknown
1499246561261,0,-284,-6.240234375E-5,27,53,53,287726,72106,93954,22627,17119,16757250,25555,8529,Tag0,unknown
1499246561262,0,-294,-6.4599609375E-5,27,53,53,287726,72106,93954,22627,17119,16757250,25555,8529,Tag0,unknown
1499246561262,0,-291,-6.39404296875E-5,27,53,53,287726,72106,93954,22627,17119,16757250,25555,8529,Tag0,unknown
1499246561262,0,-274,-6.0205078124999997E-5,27,53,53,287726,72106,93954,22627,17119,16757250,25555,8529,Tag0,unknown
1499246561262,0,20,4.39453125E-6,27,53,53,287726,72106,93954,22627,17119,16757250,25555,8529,Tag0,unknown
1499246561262,0,57,1.2524414062500001E-5,27,53,53,287726,72106,93954,22627,17119,16757250,25555,8529,Tag0,unknown
1499246561262,0,54,1.1865234375000001E-5,27,53,53,287726,72106,93954,22627,17119,16757250,25555,8529,Tag0,unknown
1499246561263,0,21,4.614257812500001E-6,27,53,53,287726,72106,93954,22627,17119,16757250,25555,8529,Tag0,unknown
1499246561263,0,8,1.7578125E-6,27,53,53,287726,72106,93954,22627,17119,16757250,25555,8529,Tag0,unknown
1499246561263,0,0,0.0,27,53,53,287726,72106,93954,22627,17119,16757250,25555,8529,Tag0,unknown
1499246561263,0,1,2.197265625E-7,27,53,53,287726,72106,93954,22627,17119,16757250,25555,8529,Tag0,unknown
1499246561263,0,29,6.3720703125E-6,27,53,53,287726,72106,93954,22627,17119,16757250,25555,8529,Tag0,unknown
1499246561263,0,66,1.4501953125E-5,27,53,53,287726,72106,93954,22627,17119,16757250,25555,8529,Tag0,unknown
1499246561263,0,71,1.56005859375E-5,27,53,53,287726,72106,93954,22627,17119,16757250,25555,8529,Tag0,unknown
1499246561264,0,67,1.4721679687500002E-5,27,53,53,287726,72106,93954,22627,17119,16757250,25555,8529,Tag0,unknown
1499246561264,0,91,1.99951171875E-5,27,53,53,287726,72106,93954,22627,17119,16757250,25555,8529,Tag0,unknown
1499246561264,0,105,2.30712890625E-5,27,53,53,287726,72106,93954,22627,17119,16757250,25555,8529,Tag0,unknown
1499246561264,0,86,1.8896484375000003E-5,27,53,53,287726,72106,93954,22627,17119,16757250,25555,8529,Tag0,unknown
1499246561264,0,73,1.6040039062500002E-5,27,53,53,287726,72106,93954,22627,17119,16757250,25555,8529,Tag0,unknown
1499246561264,0,71,1.56005859375E-5,27,53,53,287726,72106,93954,22627,17119,16757250,25555,8529,Tag0,unknown
1499246561264,0,44,9.66796875E-6,27,53,53,287726,72106,93954,22627,17119,16757250,25555,8529,Tag0,unknown
1499246561265,0,34,7.4707031250000005E-6,27,53,53,287726,72106,93954,22627,17119,16757250,25555,8529,Tag0,unknown
1499246561265,0,97,2.13134765625E-5,27,53,53,287726,72106,93954,22627,17119,16757250,25555,8529,Tag0,unknown
1499246561265,0,-93,-2.04345703125E-5,27,53,53,287726,72106,93954,22627,17119,16757250,25555,8529,Tag0,unknown
1499246561265,0,-102,-2.2412109374999998E-5,27,53,53,287726,72106,93954,22627,17119,16757250,25555,8529,Tag0,unknown
1499246561265,0,119,2.6147460937500004E-5,27,53,53,287726,72106,93954,22627,17119,16757250,25555,8529,Tag0,unknown
1499246561265,0,101,2.2192382812500002E-5,27,53,53,287726,72106,93954,22627,17119,16757250,25555,8529,Tag0,unknown
1499246561266,0,112,2.4609375E-5,27,53,53,287726,72106,93954,22627,17119,16757250,25555,8529,Tag0,unknown
1499246561266,0,124,2.724609375E-5,27,53,53,287726,72106,93954,22627,17119,16757250,25555,8529,Tag0,unknown
1499246561266,0,-116,-2.548828125E-5,27,53,53,287726,72106,93954,22627,17119,16757250,25555,8529,Tag0,unknown
1499246561266,0,121,2.6586914062500003E-5,27,53,53,287726,72106,93954,22627,17119,16757250,25555,8529,Tag0,unknown
1499246561266,0,105,2.30712890625E-5,27,53,53,287726,72106,93954,22627,17119,16757250,25555,8529,Tag0,unknown
1499246561266,0,-125,-2.74658203125E-5,27,53,53,287726,72106,93954,22627,17119,16757250,25555,8529,Tag0,unknown
1499246561266,0,-128,-2.8125E-5,27,53,53,287726,72106,93954,22627,17119,16757250,25555,8529,Tag0,unknown
1499246561266,0,88,1.93359375E-5,27,53,53,287726,72106,93954,22627,17119,16757250,25555,8529,Tag0,unknown
1499246561267,0,68,1.4941406250000001E-5,27,53,53,287726,72106,93954,22627,17119,16757250,25555,8529,Tag0,unknown
1499246561267,0,68,1.4941406250000001E-5,27,53,53,287726,72106,93954,22627,17119,16757250,25555,8529,Tag0,unknown
1499246561267,0,97,2.13134765625E-5,27,53,53,287726,72106,93954,22627,17119,16757250,25555,8529,Tag0,unknown
1499246561267,0,114,2.5048828125000003E-5,27,53,53,287726,72106,93954,22627,17119,16757250,25555,8529,Tag0,unknown
1499246561267,0,82,1.8017578124999998E-5,27,53,53,287726,72106,93954,22627,17119,16757250,25555,8529,Tag0,unknown
1499246561267,0,82,1.8017578124999998E-5,27,53,53,287726,72106,93954,22627,17119,16757250,25555,8529,Tag0,unknown
1499246561268,0,-109,-2.39501953125E-5,27,53,53,287726,72106,93954,22627,17119,16757250,25555,8529,Tag0,unknown
1499246561268,0,-48,-1.0546875E-5,27,53,53,287726,72106,93954,22627,17119,16757250,25555,8529,Tag0,unknown
1499246561268,0,-78,-1.7138671875E-5,27,53,53,287726,72106,93954,22627,17119,16757250,25555,8529,Tag0,unknown
1499246561268,0,96,2.109375E-5,27,53,53,287726,72106,93954,22627,17119,16757250,25555,8529,Tag0,unknown
1499246561268,0,40,8.7890625E-6,27,53,53,287726,72106,93954,22627,17119,16757250,25555,8529,Tag0,unknown
1499246561268,0,49,1.07666015625E-5,27,53,53,287726,72106,93954,22627,17119,16757250,25555,8529,Tag0,unknown
1499246561268,0,77,1.69189453125E-5,27,53,53,287726,72106,93954,22627,17119,16757250,25555,8529,Tag0,unknown
1499246561268,0,106,2.3291015625000003E-5,27,53,53,287726,72106,93954,22627,17119,16757250,25555,8529,Tag0,unknown
1499246561269,0,117,2.5708007812499998E-5,27,53,53,287726,72106,93954,22627,17119,16757250,25555,8529,Tag0,unknown
1499246561269,0,98,2.1533203125E-5,27,53,53,287726,72106,93954,22627,17119,16757250,25555,8529,Tag0,unknown
1499246561269,0,71,1.56005859375E-5,27,53,53,287726,72106,93954,22627,17119,16757250,25555,8529,Tag0,unknown
1499246561269,0,64,1.40625E-5,27,53,53,287726,72106,93954,22627,17119,16757250,25555,8529,Tag0,unknown
1499246561269,0,60,1.318359375E-5,27,53,53,287726,72106,93954,22627,17119,16757250,25555,8529,Tag0,unknown
1499246561269,0,89,1.95556640625E-5,27,53,53,287726,72106,93954,22627,17119,16757250,25555,8529,Tag0,unknown
1499246561269,0,112,2.4609375E-5,27,53,53,287726,72106,93954,22627,17119,16757250,25555,8529,Tag0,unknown
1499246561270,0,112,2.4609375E-5,27,53,53,287726,72106,93954,22627,17119,16757250,25555,8529,Tag0,unknown
1499246561270,0,124,2.724609375E-5,27,53,53,287726,72106,93954,22627,17119,16757250,25555,8529,Tag0,unknown
1499246561270,0,-124,-2.724609375E-5,27,53,53,287726,72106,93954,22627,17119,16757250,25555,8529,Tag0,unknown
1499246561270,0,112,2.4609375E-5,27,53,53,287726,72106,93954,22627,17119,16757250,25555,8529,Tag0,unknown
1499246561270,0,65,1.42822265625E-5,27,53,53,287726,72106,93954,22627,17119,16757250,25555,8529,Tag0,unknown
1499246561270,0,44,9.66796875E-6,27,53,53,287726,72106,93954,22627,17119,16757250,25555,8529,Tag0,unknown
1499246561271,0,100,2.197265625E-5,27,53,53,287726,72106,93954,22627,17119,16757250,25555,8529,Tag0,unknown
1499246561271,0,-110,-2.4169921875E-5,27,53,53,287726,72106,93954,22627,17119,16757250,25555,8529,Tag0,unknown
1499246561271,0,-122,-2.6806640625E-5,27,53,53,287726,72106,93954,22627,17119,16757250,25555,8529,Tag0,unknown
1499246561271,0,-125,-2.74658203125E-5,27,53,53,287726,72106,93954,22627,17119,16757250,25555,8529,Tag0,unknown
1499246561271,0,103,2.26318359375E-5,27,53,53,287726,72106,93954,22627,17119,16757250,25555,8529,Tag0,unknown
1499246561271,0,37,8.1298828125E-6,27,53,53,287726,72106,93954,22627,17119,16757250,25555,8529,Tag0,unknown
1499246561271,0,-282,-6.1962890625E-5,27,53,53,287726,72106,93954,22627,17119,16757250,25555,8529,Tag0,unknown
1499246561272,0,-313,-6.87744140625E-5,27,53,53,287726,72106,93954,22627,17119,16757250,25555,8529,Tag0,unknown
1499246561272,0,-293,-6.43798828125E-5,27,53,53,287726,72106,93954,22627,17119,16757250,25555,8529,Tag0,unknown
1499246561272,0,25,5.4931640625E-6,27,53,53,287726,72106,93954,22627,17119,16757250,25555,8529,Tag0,unknown
1499246561272,0,66,1.4501953125E-5,27,53,53,287726,72106,93954,22627,17119,16757250,25555,8529,Tag0,unknown
1499246561272,0,57,1.2524414062500001E-5,27,53,53,287726,72106,93954,22627,17119,16757250,25555,8529,Tag0,unknown
1499246561272,0,41,9.008789062499999E-6,27,53,53,287726,72106,93954,22627,17119,16757250,25555,8529,Tag0,unknown
1499246561272,0,52,1.142578125E-5,27,53,53,287726,72106,93954,22627,17119,16757250,25555,8529,Tag0,unknown
1499246561273,0,67,1.4721679687500002E-5,27,53,53,287726,72106,93954,22627,17119,16757250,25555,8529,Tag0,unknown
1499246561273,0,68,1.4941406250000001E-5,27,53,53,287726,72106,93954,22627,17119,16757250,25555,8529,Tag0,unknown
1499246561273,0,108,2.3730468750000002E-5,27,53,53,287726,72106,93954,22627,17119,16757250,25555,8529,Tag0,unknown
1499246561273,0,-103,-2.26318359375E-5,27,53,53,287726,72106,93954,22627,17119,16757250,25555,8529,Tag0,unknown
1499246561273,0,-88,-1.93359375E-5,27,53,53,287726,72106,93954,22627,17119,16757250,25555,8529,Tag0,unknown
1499246561274,0,-78,-1.7138671875E-5,27,53,53,287726,72106,93954,22627,17119,16757250,25555,8529,Tag0,unknown
1499246561274,0,-75,-1.64794921875E-5,27,53,53,287726,72106,93954,22627,17119,16757250,25555,8529,Tag0,unknown
1499246561274,0,-127,-2.79052734375E-5,27,53,53,287726,72106,93954,22627,17119,16757250,25555,8529,Tag0,unknown
1499246561274,0,67,1.4721679687500002E-5,27,53,53,287726,72106,93954,22627,17119,16757250,25555,8529,Tag0,unknown
1499246561274,0,37,8.1298828125E-6,27,53,53,287726,72106,93954,22627,17119,16757250,25555,8529,Tag0,unknown
1499246561274,0,35,7.6904296875E-6,27,53,53,287726,72106,93954,22627,17119,16757250,25555,8529,Tag0,unknown
1499246561274,0,52,1.142578125E-5,27,53,53,287726,72106,93954,22627,17119,16757250,25555,8529,Tag0,unknown
1499246561275,0,83,1.82373046875E-5,27,53,53,287726,72106,93954,22627,17119,16757250,25555,8529,Tag0,unknown
1499246561275,0,106,2.3291015625000003E-5,27,53,53,287726,72106,93954,22627,17119,16757250,25555,8529,Tag0,unknown
1499246561275,0,106,2.3291015625000003E-5,27,53,53,287726,72106,93954,22627,17119,16757250,25555,8529,Tag0,unknown
1499246561275,0,86,1.8896484375000003E-5,27,53,53,287726,72106,93954,22627,17119,16757250,25555,8529,Tag0,unknown
1499246561275,0,65,1.42822265625E-5,27,53,53,287726,72106,93954,22627,17119,16757250,25555,8529,Tag0,unknown
1499246561275,0,66,1.4501953125E-5,27,53,53,287726,72106,93954,22627,17119,16757250,25555,8529,Tag0,unknown
1499246561275,0,98,2.1533203125E-5,27,53,53,287726,72106,93954,22627,17119,16757250,25555,8529,Tag0,unknown
1499246561276,0,107,2.35107421875E-5,27,53,53,287726,72106,93954,22627,17119,16757250,25555,8529,Tag0,unknown
1499246561276,0,102,2.2412109374999998E-5,27,53,53,287726,72106,93954,22627,17119,16757250,25555,8529,Tag0,unknown
1499246561276,0,90,1.9775390625E-5,27,53,53,287726,72106,93954,22627,17119,16757250,25555,8529,Tag0,unknown
1499246561276,0,115,2.52685546875E-5,27,53,53,287726,72106,93954,22627,17119,16757250,25555,8529,Tag0,unknown
1499246561276,0,-104,-2.28515625E-5,27,53,53,287726,72106,93954,22627,17119,16757250,25555,8529,Tag0,unknown
1499246561276,0,-108,-2.3730468750000002E-5,27,53,53,287726,72106,93954,22627,17119,16757250,25555,8529,Tag0,unknown
1499246561277,0,100,2.197265625E-5,27,53,53,287726,72106,93954,22627,17119,16757250,25555,8529,Tag0,unknown
1499246561277,0,72,1.58203125E-5,27,53,53,287726,72106,93954,22627,17119,16757250,25555,8529,Tag0,unknown
1499246561277,0,58,1.2744140625E-5,27,53,53,287726,72106,93954,22627,17119,16757250,25555,8529,Tag0,unknown
1499246561277,0,40,8.7890625E-6,27,53,53,287726,72106,93954,22627,17119,16757250,25555,8529,Tag0,unknown
1499246561277,0,80,1.7578125E-5,27,53,53,287726,72106,93954,22627,17119,16757250,25555,8529,Tag0,unknown
1499246561277,0,113,2.48291015625E-5,27,53,53,287726,72106,93954,22627,17119,16757250,25555,8529,Tag0,unknown
1499246561277,0,105,2.30712890625E-5,27,53,53,287726,72106,93954,22627,17119,16757250,25555,8529,Tag0,unknown
1499246561277,0,81,1.77978515625E-5,27,53,53,287726,72106,93954,22627,17119,16757250,25555,8529,Tag0,unknown
1499246561278,0,70,1.5380859375E-5,27,53,53,287726,72106,93954,22627,17119,16757250,25555,8529,Tag0,unknown
1499246561278,0,73,1.6040039062500002E-5,27,53,53,287726,72106,93954,22627,17119,16757250,25555,8529,Tag0,unknown
1499246561278,0,75,1.64794921875E-5,27,53,53,287726,72106,93954,22627,17119,16757250,25555,8529,Tag0,unknown
1499246561278,0,86,1.8896484375000003E-5,27,53,53,287726,72106,93954,22627,17119,16757250,25555,8529,Tag0,unknown
1499246561278,0,96,2.109375E-5,27,53,53,287726,72106,93954,22627,17119,16757250,25555,8529,Tag0,unknown
1499246561278,0,87,1.91162109375E-5,27,53,53,287726,72106,93954,22627,17119,16757250,25555,8529,Tag0,unknown
1499246561278,0,86,1.8896484375000003E-5,27,53,53,287726,72106,93954,22627,17119,16757250,25555,8529,Tag0,unknown
1499246561279,0,102,2.2412109374999998E-5,27,53,53,287726,72106,93954,22627,17119,16757250,25555,8529,Tag0,unknown
1499246561279,0,105,2.30712890625E-5,27,53,53,287726,72106,93954,22627,17119,16757250,25555,8529,Tag0,unknown
1499246561279,0,88,1.93359375E-5,27,53,53,287726,72106,93954,22627,17119,16757250,25555,8529,Tag0,unknown
1499246561279,0,41,9.008789062499999E-6,27,53,53,287726,72106,93954,22627,17119,16757250,25555,8529,Tag0,unknown
1499246561279,0,22,4.833984375E-6,27,53,53,287726,72106,93954,22627,17119,16757250,25555,8529,Tag0,unknown
1499246561279,0,55,1.20849609375E-5,27,53,53,287726,72106,93954,22627,17119,16757250,25555,8529,Tag0,unknown
1499246561279,0,98,2.1533203125E-5,27,53,53,287726,72106,93954,22627,17119,16757250,25555,8529,Tag0,unknown
1499246561283,0,104,2.28515625E-5,27,53,53,287726,72106,93954,22627,17119,16757250,25555,8529,Tag0,unknown
1499246561283,0,101,2.2192382812500002E-5,27,53,53,287726,72106,93954,22627,17119,16757250,25555,8529,Tag0,unknown
1499246561283,0,103,2.26318359375E-5,27,53,53,287726,72106,93954,22627,17119,16757250,25555,8529,Tag0,unknown
1499246561283,0,113,2.48291015625E-5,27,53,53,287726,72106,93954,22627,17119,16757250,25555,8529,Tag0,unknown
1499246561283,0,76,1.669921875E-5,27,53,53,287726,72106,93954,22627,17119,16757250,25555,8529,Tag0,unknown
1499246561284,0,11,2.4169921875E-6,27,53,53,287726,72106,93954,22627,17119,16757250,25555,8529,Tag0,unknown
1499246561284,0,-278,-6.108398437500001E-5,27,53,53,287726,72106,93954,22627,17119,16757250,25555,8529,Tag0,unknown
1499246561284,0,-266,-5.8447265625E-5,27,53,53,287726,72106,93954,22627,17119,16757250,25555,8529,Tag0,unknown
1499246561284,0,20,4.39453125E-6,27,53,53,287726,72106,93954,22627,17119,16757250,25555,8529,Tag0,unknown
1499246561284,0,56,1.23046875E-5,27,53,53,287726,72106,93954,22627,17119,16757250,25555,8529,Tag0,unknown
1499246561284,0,52,1.142578125E-5,27,53,53,287726,72106,93954,22627,17119,16757250,25555,8529,Tag0,unknown
1499246561284,0,49,1.07666015625E-5,27,53,53,287726,72106,93954,22627,17119,16757250,25555,8529,Tag0,unknown
1499246561284,0,38,8.349609375E-6,27,53,53,287726,72106,93954,22627,17119,16757250,25555,8529,Tag0,unknown
1499246561285,0,-260,-5.712890625E-5,27,53,53,287726,72106,93954,22627,17119,16757250,25555,8529,Tag0,unknown
1499246561285,0,-274,-6.0205078124999997E-5,27,53,53,287726,72106,93954,22627,17119,16757250,25555,8529,Tag0,unknown
1499246561285,0,22,4.833984375E-6,27,53,53,287726,72106,93954,22627,17119,16757250,25555,8529,Tag0,unknown
1499246561285,0,88,1.93359375E-5,27,53,53,287726,72106,93954,22627,17119,16757250,25555,8529,Tag0,unknown
1499246561285,0,113,2.48291015625E-5,27,53,53,287726,72106,93954,22627,17119,16757250,25555,8529,Tag0,unknown
1499246561285,0,77,1.69189453125E-5,27,53,53,287726,72106,93954,22627,17119,16757250,25555,8529,Tag0,unknown
1499246561286,0,49,1.07666015625E-5,27,53,53,287726,72106,93954,22627,17119,16757250,25555,8529,Tag0,unknown
1499246561286,0,-259,-5.69091796875E-5,27,53,53,287726,72106,93954,22627,17119,16757250,25555,8529,Tag0,unknown
1499246561286,0,-279,-6.13037109375E-5,27,53,53,287726,72106,93954,22627,17119,16757250,25555,8529,Tag0,unknown
1499246561286,0,21,4.614257812500001E-6,27,53,53,287726,72106,93954,22627,17119,16757250,25555,8529,Tag0,unknown
1499246561287,0,74,1.6259765625E-5,27,53,53,287726,72106,93954,22627,17119,16757250,25555,8529,Tag0,unknown
1499246561287,0,108,2.3730468750000002E-5,27,53,53,287726,72106,93954,22627,17119,16757250,25555,8529,Tag0,unknown
1499246561287,0,86,1.8896484375000003E-5,27,53,53,287726,72106,93954,22627,17119,16757250,25555,8529,Tag0,unknown
1499246561287,0,45,9.8876953125E-6,27,53,53,287726,72106,93954,22627,17119,16757250,25555,8529,Tag0,unknown
1499246561287,0,37,8.1298828125E-6,27,53,53,287726,72106,93954,22627,17119,16757250,25555,8529,Tag0,unknown
1499246561287,0,68,1.4941406250000001E-5,27,53,53,287726,72106,93954,22627,17119,16757250,25555,8529,Tag0,unknown
1499246561287,0,92,2.021484375E-5,27,53,53,287726,72106,93954,22627,17119,16757250,25555,8529,Tag0,unknown
1499246561287,0,64,1.40625E-5,27,53,53,287726,72106,93954,22627,17119,16757250,25555,8529,Tag0,unknown
1499246561288,0,35,7.6904296875E-6,27,53,53,287726,72106,93954,22627,17119,16757250,25555,8529,Tag0,unknown
1499246561288,0,16,3.515625E-6,27,53,53,287726,72106,93954,22627,17119,16757250,25555,8529,Tag0,unknown
1499246561288,0,-269,-5.9106445312499996E-5,27,53,53,287726,72106,93954,22627,17119,16757250,25555,8529,Tag0,unknown
1499246561288,0,-278,-6.108398437500001E-5,27,53,53,287726,72106,93954,22627,17119,16757250,25555,8529,Tag0,unknown
1499246561288,0,5,1.0986328125E-6,27,53,53,287726,72106,93954,22627,17119,16757250,25555,8529,Tag0,unknown
1499246561288,0,25,5.4931640625E-6,27,53,53,287726,72106,93954,22627,17119,16757250,25555,8529,Tag0,unknown
1499246561289,0,17,3.7353515625000003E-6,27,53,53,287726,72106,93954,22627,17119,16757250,25555,8529,Tag0,unknown
1499246561289,0,3,6.591796875E-7,27,53,53,287726,72106,93954,22627,17119,16757250,25555,8529,Tag0,unknown
1499246561289,0,-278,-6.108398437500001E-5,27,53,53,287726,72106,93954,22627,17119,16757250,25555,8529,Tag0,unknown
1499246561289,0,-296,-6.50390625E-5,27,53,53,287726,72106,93954,22627,17119,16757250,25555,8529,Tag0,unknown
1499246561289,0,7,1.5380859375E-6,27,53,53,287726,72106,93954,22627,17119,16757250,25555,8529,Tag0,unknown
1499246561289,0,80,1.7578125E-5,27,53,53,287726,72106,93954,22627,17119,16757250,25555,8529,Tag0,unknown
1499246561289,0,84,1.8457031250000004E-5,27,53,53,287726,72106,93954,22627,17119,16757250,25555,8529,Tag0,unknown
1499246561290,0,24,5.2734375E-6,27,53,53,287726,72106,93954,22627,17119,16757250,25555,8529,Tag0,unknown
1499246561290,0,-278,-6.108398437500001E-5,27,53,53,287726,72106,93954,22627,17119,16757250,25555,8529,Tag0,unknown
1499246561290,0,-274,-6.0205078124999997E-5,27,53,53,287726,72106,93954,22627,17119,16757250,25555,8529,Tag0,unknown
1499246562635,0,4,8.7890625E-7,27,53,53,287726,72106,93954,22627,17119,16757250,25555,8529,Tag0,unknown
1499246562636,0,3,6.591796875E-7,27,53,53,287726,72106,93954,22627,17119,16757250,25555,8529,Tag0,unknown
1499246562637,0,-262,-5.7568359375E-5,27,53,53,287726,72106,93954,22627,17119,16757250,25555,8529,Tag0,unknown
1499246562638,0,-262,-5.7568359375E-5,27,53,53,287726,72106,93954,22627,17119,16757250,25555,8529,Tag0,unknown
1499246562639,0,-295,-6.48193359375E-5,27,53,53,287726,72106,93954,22627,17119,16757250,25555,8529,Tag0,unknown
1499246562639,0,-297,-6.525878906250001E-5,27,53,53,287726,72106,93954,22627,17119,16757250,25555,8529,Tag0,unknown
1499246562640,0,4,8.7890625E-7,27,53,53,287726,72106,93954,22627,17119,16757250,25555,8529,Tag0,unknown
1499246562641,0,39,8.5693359375E-6,27,53,53,287726,72106,93954,22627,17119,16757250,25555,8529,Tag0,unknown
1499246562641,0,65,1.42822265625E-5,27,53,53,287726,72106,93954,22627,17119,16757250,25555,8529,Tag0,unknown
1499246562642,0,71,1.56005859375E-5,27,53,53,287726,72106,93954,22627,17119,16757250,25555,8529,Tag0,unknown
1499246562642,0,60,1.318359375E-5,27,53,53,287726,72106,93954,22627,17119,16757250,25555,8529,Tag0,unknown
1499246562643,0,65,1.42822265625E-5,27,53,53,287726,72106,93954,22627,17119,16757250,25555,8529,Tag0,unknown
1499246562644,0,58,1.2744140625E-5,27,53,53,287726,72106,93954,22627,17119,16757250,25555,8529,Tag0,unknown
1499246562644,0,60,1.318359375E-5,27,53,53,287726,72106,93954,22627,17119,16757250,25555,8529,Tag0,unknown
1499246562645,0,71,1.56005859375E-5,27,53,53,287726,72106,93954,22627,17119,16757250,25555,8529,Tag0,unknown
1499246562646,0,71,1.56005859375E-5,27,53,53,287726,72106,93954,22627,17119,16757250,25555,8529,Tag0,unknown
1499246562647,0,55,1.20849609375E-5,27,53,53,287726,72106,93954,22627,17119,16757250,25555,8529,Tag0,unknown
1499246562647,0,28,6.15234375E-6,27,53,53,287726,72106,93954,22627,17119,16757250,25555,8529,Tag0,unknown
1499246562648,0,9,1.9775390625E-6,27,53,53,287726,72106,93954,22627,17119,16757250,25555,8529,Tag0,unknown
1499246562649,0,-269,-5.9106445312499996E-5,27,53,53,287726,72106,93954,22627,17119,16757250,25555,8529,Tag0,unknown
1499246562650,0,20,4.39453125E-6,27,53,53,287726,72106,93954,22627,17119,16757250,25555,8529,Tag0,unknown
1499246562651,0,69,1.51611328125E-5,27,53,53,287726,72106,93954,22627,17119,16757250,25555,8529,Tag0,unknown
1499246562652,0,65,1.42822265625E-5,27,53,53,287726,72106,93954,22627,17119,16757250,25555,8529,Tag0,unknown
1499246562653,0,43,9.448242187500001E-6,27,53,53,287726,72106,93954,22627,17119,16757250,25555,8529,Tag0,unknown
1499246562654,0,49,1.07666015625E-5,27,53,53,287726,72106,93954,22627,17119,16757250,25555,8529,Tag0,unknown
1499246562655,0,85,1.86767578125E-5,27,53,53,287726,72106,93954,22627,17119,16757250,25555,8529,Tag0,unknown
1499246562656,0,87,1.91162109375E-5,27,53,53,287726,72106,93954,22627,17119,16757250,25555,8529,Tag0,unknown
1499246562657,0,43,9.448242187500001E-6,27,53,53,287726,72106,93954,22627,17119,16757250,25555,8529,Tag0,unknown
1499246562658,0,3,6.591796875E-7,27,53,53,287726,72106,93954,22627,17119,16757250,25555,8529,Tag0,unknown
1499246562659,0,-260,-5.712890625E-5,27,53,53,287726,72106,93954,22627,17119,16757250,25555,8529,Tag0,unknown
1499246562659,0,3,6.591796875E-7,27,53,53,287726,72106,93954,22627,17119,16757250,25555,8529,Tag0,unknown
1499246562660,0,28,6.15234375E-6,27,53,53,287726,72106,93954,22627,17119,16757250,25555,8529,Tag0,unknown
1499246562660,0,72,1.58203125E-5,27,53,53,287726,72106,93954,22627,17119,16757250,25555,8529,Tag0,unknown
1499246562661,0,86,1.8896484375000003E-5,27,53,53,287726,72106,93954,22627,17119,16757250,25555,8529,Tag0,unknown
1499246562661,0,59,1.29638671875E-5,27,53,53,287726,72106,93954,22627,17119,16757250,25555,8529,Tag0,unknown
1499246562662,0,39,8.5693359375E-6,27,53,53,287726,72106,93954,22627,17119,16757250,25555,8529,Tag0,unknown
1499246562662,0,49,1.07666015625E-5,27,53,53,287726,72106,93954,22627,17119,16757250,25555,8529,Tag0,unknown
1499246562662,0,80,1.7578125E-5,27,53,53,287726,72106,93954,22627,17119,16757250,25555,8529,Tag0,unknown
1499246562663,0,92,2.021484375E-5,27,53,53,287726,72106,93954,22627,17119,16757250,25555,8529,Tag0,unknown
1499246562663,0,68,1.4941406250000001E-5,27,53,53,287726,72106,93954,22627,17119,16757250,25555,8529,Tag0,unknown
1499246562663,0,11,2.4169921875E-6,27,53,53,287726,72106,93954,22627,17119,16757250,25555,8529,Tag0,unknown
1499246562664,0,-269,-5.9106445312499996E-5,27,53,53,287726,72106,93954,22627,17119,16757250,25555,8529,Tag0,unknown
1499246562664,0,7,1.5380859375E-6,27,53,53,287726,72106,93954,22627,17119,16757250,25555,8529,Tag0,unknown
1499246562665,0,51,1.1206054687499999E-5,27,53,53,287726,72106,93954,22627,17119,16757250,25555,8529,Tag0,unknown
1499246562665,0,68,1.4941406250000001E-5,27,53,53,287726,72106,93954,22627,17119,16757250,25555,8529,Tag0,unknown
1499246562666,0,67,1.4721679687500002E-5,27,53,53,287726,72106,93954,22627,17119,16757250,25555,8529,Tag0,unknown
1499246562666,0,74,1.6259765625E-5,27,53,53,287726,72106,93954,22627,17119,16757250,25555,8529,Tag0,unknown
1499246562667,0,105,2.30712890625E-5,27,53,53,287726,72106,93954,22627,17119,16757250,25555,8529,Tag0,unknown
1499246562667,0,-122,-2.6806640625E-5,27,53,53,287726,72106,93954,22627,17119,16757250,25555,8529,Tag0,unknown
1499246562668,0,-124,-2.724609375E-5,27,53,53,287726,72106,93954,22627,17119,16757250,25555,8529,Tag0,unknown
1499246562668,0,108,2.3730468750000002E-5,27,53,53,287726,72106,93954,22627,17119,16757250,25555,8529,Tag0,unknown
1499246562669,0,72,1.58203125E-5,27,53,53,287726,72106,93954,22627,17119,16757250,25555,8529,Tag0,unknown
1499246562669,0,82,1.8017578124999998E-5,27,53,53,287726,72106,93954,22627,17119,16757250,25555,8529,Tag0,unknown
1499246562669,0,100,2.197265625E-5,27,53,53,287726,72106,93954,22627,17119,16757250,25555,8529,Tag0,unknown
1499246562670,0,76,1.669921875E-5,27,53,53,287726,72106,93954,22627,17119,16757250,25555,8529,Tag0,unknown
1499246562670,0,87,1.91162109375E-5,27,53,53,287726,72106,93954,22627,17119,16757250,25555,8529,Tag0,unknown
1499246562671,0,73,1.6040039062500002E-5,27,53,53,287726,72106,93954,22627,17119,16757250,25555,8529,Tag0,unknown
1499246562672,0,2,4.39453125E-7,27,53,53,287726,72106,93954,22627,17119,16757250,25555,8529,Tag0,unknown
1499246562672,0,-262,-5.7568359375E-5,27,53,53,287726,72106,93954,22627,17119,16757250,25555,8529,Tag0,unknown
1499246562673,0,42,9.228515625000002E-6,27,53,53,287726,72106,93954,22627,17119,16757250,25555,8529,Tag0,unknown
1499246562674,0,83,1.82373046875E-5,27,53,53,287726,72106,93954,22627,17119,16757250,25555,8529,Tag0,unknown
1499246562674,0,102,2.2412109374999998E-5,27,53,53,287726,72106,93954,22627,17119,16757250,25555,8529,Tag0,unknown
1499246562675,0,122,2.6806640625E-5,27,53,53,287726,72106,93954,22627,17119,16757250,25555,8529,Tag0,unknown
1499246562675,0,-126,-2.7685546875E-5,27,53,53,287726,72106,93954,22627,17119,16757250,25555,8529,Tag0,unknown
1499246562676,0,117,2.5708007812499998E-5,27,53,53,287726,72106,93954,22627,17119,16757250,25555,8529,Tag0,unknown
1499246562676,0,121,2.6586914062500003E-5,27,53,53,287726,72106,93954,22627,17119,16757250,25555,8529,Tag0,unknown
1499246562678,0,-126,-2.7685546875E-5,27,53,53,287726,72106,93954,22627,17119,16757250,25555,8529,Tag0,unknown
1499246562678,0,120,2.63671875E-5,27,53,53,287726,72106,93954,22627,17119,16757250,25555,8529,Tag0,unknown
1499246562679,0,91,1.99951171875E-5,27,53,53,287726,72106,93954,22627,17119,16757250,25555,8529,Tag0,unknown
1499246562679,0,88,1.93359375E-5,27,53,53,287726,72106,93954,22627,17119,16757250,25555,8529,Tag0,unknown
1499246562680,0,102,2.2412109374999998E-5,27,53,53,287726,72106,93954,22627,17119,16757250,25555,8529,Tag0,unknown
1499246562680,0,122,2.6806640625E-5,27,53,53,287726,72106,93954,22627,17119,16757250,25555,8529,Tag0,unknown
1499246562706,0,-127,-2.79052734375E-5,44,70,53,168308,51321,16750771,16746751,5226,16484,16817,10449,Tag0,unknown
1499246562707,0,97,2.13134765625E-5,44,70,53,168308,51321,16750771,16746751,5226,16484,16817,10449,Tag0,unknown
1499246562707,0,23,5.0537109375E-6,44,70,53,168308,51321,16750771,16746751,5226,16484,16817,10449,Tag0,unknown
1499246562708,0,-267,-5.86669921875E-5,44,70,53,168308,51321,16750771,16746751,5226,16484,16817,10449,Tag0,unknown
1499246562708,0,12,2.63671875E-6,44,70,53,168308,51321,16750771,16746751,5226,16484,16817,10449,Tag0,unknown
1499246562708,0,59,1.29638671875E-5,44,70,53,168308,51321,16750771,16746751,5226,16484,16817,10449,Tag0,unknown
1499246562709,0,106,2.3291015625000003E-5,44,70,53,168308,51321,16750771,16746751,5226,16484,16817,10449,Tag0,unknown
1499246562709,0,117,2.5708007812499998E-5,44,70,53,168308,51321,16750771,16746751,5226,16484,16817,10449,Tag0,unknown
1499246562710,0,117,2.5708007812499998E-5,44,70,53,168308,51321,16750771,16746751,5226,16484,16817,10449,Tag0,unknown
1499246562710,0,108,2.3730468750000002E-5,44,70,53,168308,51321,16750771,16746751,5226,16484,16817,10449,Tag0,unknown
1499246562711,0,84,1.8457031250000004E-5,44,70,53,168308,51321,16750771,16746751,5226,16484,16817,10449,Tag0,unknown
1499246562711,0,70,1.5380859375E-5,44,70,53,168308,51321,16750771,16746751,5226,16484,16817,10449,Tag0,unknown
1499246562711,0,77,1.69189453125E-5,44,70,53,168308,51321,16750771,16746751,5226,16484,16817,10449,Tag0,unknown
1499246562712,0,119,2.6147460937500004E-5,44,70,53,168308,51321,16750771,16746751,5226,16484,16817,10449,Tag0,unknown
1499246562712,0,-96,-2.109375E-5,44,70,53,168308,51321,16750771,16746751,5226,16484,16817,10449,Tag0,unknown
1499246562713,0,-115,-2.52685546875E-5,44,70,53,168308,51321,16750771,16746751,5226,16484,16817,10449,Tag0,unknown
1499246562713,0,105,2.30712890625E-5,44,70,53,168308,51321,16750771,16746751,5226,16484,16817,10449,Tag0,unknown
1499246562714,0,69,1.51611328125E-5,44,70,53,168308,51321,16750771,16746751,5226,16484,16817,10449,Tag0,unknown
1499246562714,0,42,9.228515625000002E-6,44,70,53,168308,51321,16750771,16746751,5226,16484,16817,10449,Tag0,unknown
1499246562715,0,51,1.1206054687499999E-5,44,70,53,168308,51321,16750771,16746751,5226,16484,16817,10449,Tag0,unknown
1499246562715,0,86,1.8896484375000003E-5,44,70,53,168308,51321,16750771,16746751,5226,16484,16817,10449,Tag0,unknown
1499246562716,0,99,2.1752929687500003E-5,44,70,53,168308,51321,16750771,16746751,5226,16484,16817,10449,Tag0,unknown
1499246562716,0,91,1.99951171875E-5,44,70,53,168308,51321,16750771,16746751,5226,16484,16817,10449,Tag0,unknown
1499246562717,0,60,1.318359375E-5,44,70,53,168308,51321,16750771,16746751,5226,16484,16817,10449,Tag0,unknown
1499246562718,0,60,1.318359375E-5,44,70,53,168308,51321,16750771,16746751,5226,16484,16817,10449,Tag0,unknown
1499246562718,0,80,1.7578125E-5,44,70,53,168308,51321,16750771,16746751,5226,16484,16817,10449,Tag0,unknown
1499246562719,0,84,1.8457031250000004E-5,44,70,53,168308,51321,16750771,16746751,5226,16484,16817,10449,Tag0,unknown
1499246562719,0,86,1.8896484375000003E-5,44,70,53,168308,51321,16750771,16746751,5226,16484,16817,10449,Tag0,unknown
1499246562720,0,97,2.13134765625E-5,44,70,53,168308,51321,16750771,16746751,5226,16484,16817,10449,Tag0,unknown
1499246562720,0,74,1.6259765625E-5,44,70,53,168308,51321,16750771,16746751,5226,16484,16817,10449,Tag0,unknown
1499246562721,0,70,1.5380859375E-5,44,70,53,168308,51321,16750771,16746751,5226,16484,16817,10449,Tag0,unknown
1499246562721,0,76,1.669921875E-5,44,70,53,168308,51321,16750771,16746751,5226,16484,16817,10449,Tag0,unknown
1499246562722,0,85,1.86767578125E-5,44,70,53,168308,51321,16750771,16746751,5226,16484,16817,10449,Tag0,unknown
1499246562722,0,99,2.1752929687500003E-5,44,70,53,168308,51321,16750771,16746751,5226,16484,16817,10449,Tag0,unknown
1499246562723,0,115,2.52685546875E-5,44,70,53,168308,51321,16750771,16746751,5226,16484,16817,10449,Tag0,unknown
1499246562723,0,124,2.724609375E-5,44,70,53,168308,51321,16750771,16746751,5226,16484,16817,10449,Tag0,unknown
1499246562724,0,116,2.548828125E-5,44,70,53,168308,51321,16750771,16746751,5226,16484,16817,10449,Tag0,unknown
1499246562725,0,92,2.021484375E-5,44,70,53,168308,51321,16750771,16746751,5226,16484,16817,10449,Tag0,unknown
1499246562725,0,71,1.56005859375E-5,44,70,53,168308,51321,16750771,16746751,5226,16484,16817,10449,Tag0,unknown
1499246562728,0,59,1.29638671875E-5,44,70,53,168308,51321,16750771,16746751,5226,16484,16817,10449,Tag0,unknown
1499246562728,0,34,7.4707031250000005E-6,44,70,53,168308,51321,16750771,16746751,5226,16484,16817,10449,Tag0,unknown
1499246562729,0,25,5.4931640625E-6,44,70,53,168308,51321,16750771,16746751,5226,16484,16817,10449,Tag0,unknown
1499246562729,0,72,1.58203125E-5,44,70,53,168308,51321,16750771,16746751,5226,16484,16817,10449,Tag0,unknown
1499246562729,0,120,2.63671875E-5,44,70,53,168308,51321,16750771,16746751,5226,16484,16817,10449,Tag0,unknown
1499246562729,0,122,2.6806640625E-5,44,70,53,168308,51321,16750771,16746751,5226,16484,16817,10449,Tag0,unknown
1499246562730,0,97,2.13134765625E-5,44,70,53,168308,51321,16750771,16746751,5226,16484,16817,10449,Tag0,unknown
1499246562730,0,88,1.93359375E-5,44,70,53,168308,51321,16750771,16746751,5226,16484,16817,10449,Tag0,unknown
1499246562730,0,77,1.69189453125E-5,44,70,53,168308,51321,16750771,16746751,5226,16484,16817,10449,Tag0,unknown
1499246562731,0,85,1.86767578125E-5,44,70,53,168308,51321,16750771,16746751,5226,16484,16817,10449,Tag0,unknown
1499246562731,0,120,2.63671875E-5,44,70,53,168308,51321,16750771,16746751,5226,16484,16817,10449,Tag0,unknown
1499246562731,0,-118,-2.5927734375E-5,44,70,53,168308,51321,16750771,16746751,5226,16484,16817,10449,Tag0,unknown
1499246562732,0,122,2.6806640625E-5,44,70,53,168308,51321,16750771,16746751,5226,16484,16817,10449,Tag0,unknown
1499246562732,0,71,1.56005859375E-5,44,70,53,168308,51321,16750771,16746751,5226,16484,16817,10449,Tag0,unknown
1499246562734,0,36,7.91015625E-6,44,70,53,168308,51321,16750771,16746751,5226,16484,16817,10449,Tag0,unknown
1499246562734,0,56,1.23046875E-5,44,70,53,168308,51321,16750771,16746751,5226,16484,16817,10449,Tag0,unknown
1499246562735,0,97,2.13134765625E-5,44,70,53,168308,51321,16750771,16746751,5226,16484,16817,10449,Tag0,unknown
1499246562735,0,88,1.93359375E-5,44,70,53,168308,51321,16750771,16746751,5226,16484,16817,10449,Tag0,unknown
1499246562735,0,52,1.142578125E-5,44,70,53,168308,51321,16750771,16746751,5226,16484,16817,10449,Tag0,unknown
1499246562736,0,26,5.712890625E-6,44,70,53,168308,51321,16750771,16746751,5226,16484,16817,10449,Tag0,unknown
1499246562736,0,27,5.9326171875000005E-6,44,70,53,168308,51321,16750771,16746751,5226,16484,16817,10449,Tag0,unknown
1499246562737,0,49,1.07666015625E-5,44,70,53,168308,51321,16750771,16746751,5226,16484,16817,10449,Tag0,unknown
1499246562738,0,70,1.5380859375E-5,44,70,53,168308,51321,16750771,16746751,5226,16484,16817,10449,Tag0,unknown
1499246562738,0,90,1.9775390625E-5,44,70,53,168308,51321,16750771,16746751,5226,16484,16817,10449,Tag0,unknown
1499246562738,0,89,1.95556640625E-5,44,70,53,168308,51321,16750771,16746751,5226,16484,16817,10449,Tag0,unknown
1499246562739,0,54,1.1865234375000001E-5,44,70,53,168308,51321,16750771,16746751,5226,16484,16817,10449,Tag0,unknown
1499246562739,0,22,4.833984375E-6,44,70,53,168308,51321,16750771,16746751,5226,16484,16817,10449,Tag0,unknown
1499246562740,0,24,5.2734375E-6,44,70,53,168308,51321,16750771,16746751,5226,16484,16817,10449,Tag0,unknown
1499246562740,0,21,4.614257812500001E-6,44,70,53,168308,51321,16750771,16746751,5226,16484,16817,10449,Tag0,unknown
1499246562741,0,24,5.2734375E-6,44,70,53,168308,51321,16750771,16746751,5226,16484,16817,10449,Tag0,unknown
1499246562741,0,67,1.4721679687500002E-5,44,70,53,168308,51321,16750771,16746751,5226,16484,16817,10449,Tag0,unknown
1499246562741,0,72,1.58203125E-5,44,70,53,168308,51321,16750771,16746751,5226,16484,16817,10449,Tag0,unknown
1499246562741,0,48,1.0546875E-5,44,70,53,168308,51321,16750771,16746751,5226,16484,16817,10449,Tag0,unknown
1499246562742,0,36,7.91015625E-6,44,70,53,168308,51321,16750771,16746751,5226,16484,16817,10449,Tag0,unknown
1499246562742,0,48,1.0546875E-5,44,70,53,168308,51321,16750771,16746751,5226,16484,16817,10449,Tag0,unknown
1499246562742,0,102,2.2412109374999998E-5,44,70,53,168308,51321,16750771,16746751,5226,16484,16817,10449,Tag0,unknown
1499246562743,0,116,2.548828125E-5,44,70,53,168308,51321,16750771,16746751,5226,16484,16817,10449,Tag0,unknown
1499246562743,0,85,1.86767578125E-5,44,70,53,168308,51321,16750771,16746751,5226,16484,16817,10449,Tag0,unknown
1499246562743,0,43,9.448242187500001E-6,44,70,53,168308,51321,16750771,16746751,5226,16484,16817,10449,Tag0,unknown
1499246562743,0,9,1.9775390625E-6,44,70,53,168308,51321,16750771,16746751,5226,16484,16817,10449,Tag0,unknown
1499246562744,0,22,4.833984375E-6,44,70,53,168308,51321,16750771,16746751,5226,16484,16817,10449,Tag0,unknown
1499246562744,0,84,1.8457031250000004E-5,44,70,53,168308,51321,16750771,16746751,5226,16484,16817,10449,Tag0,unknown
1499246562744,0,116,2.548828125E-5,44,70,53,168308,51321,16750771,16746751,5226,16484,16817,10449,Tag0,unknown
1499246562744,0,85,1.86767578125E-5,44,70,53,168308,51321,16750771,16746751,5226,16484,16817,10449,Tag0,unknown
1499246562745,0,52,1.142578125E-5,44,70,53,168308,51321,16750771,16746751,5226,16484,16817,10449,Tag0,unknown
1499246562745,0,66,1.4501953125E-5,44,70,53,168308,51321,16750771,16746751,5226,16484,16817,10449,Tag0,unknown
1499246562745,0,82,1.8017578124999998E-5,44,70,53,168308,51321,16750771,16746751,5226,16484,16817,10449,Tag0,unknown
1499246562746,0,75,1.64794921875E-5,44,70,53,168308,51321,16750771,16746751,5226,16484,16817,10449,Tag0,unknown
1499246562746,0,71,1.56005859375E-5,44,70,53,168308,51321,16750771,16746751,5226,16484,16817,10449,Tag0,unknown
1499246562747,0,90,1.9775390625E-5,44,70,53,168308,51321,16750771,16746751,5226,16484,16817,10449,Tag0,unknown
1499246562747,0,89,1.95556640625E-5,44,70,53,168308,51321,16750771,16746751,5226,16484,16817,10449,Tag0,unknown
1499246562747,0,70,1.5380859375E-5,44,70,53,168308,51321,16750771,16746751,5226,16484,16817,10449,Tag0,unknown
1499246562748,0,54,1.1865234375000001E-5,44,70,53,168308,51321,16750771,16746751,5226,16484,16817,10449,Tag0,unknown
1499246562748,0,34,7.4707031250000005E-6,44,70,53,168308,51321,16750771,16746751,5226,16484,16817,10449,Tag0,unknown
1499246562748,0,10,2.197265625E-6,44,70,53,168308,51321,16750771,16746751,5226,16484,16817,10449,Tag0,unknown
1499246562748,0,1,2.197265625E-7,44,70,53,168308,51321,16750771,16746751,5226,16484,16817,10449,Tag0,unknown
1499246562749,0,20,4.39453125E-6,44,70,53,168308,51321,16750771,16746751,5226,16484,16817,10449,Tag0,unknown
1499246562749,0,69,1.51611328125E-5,44,70,53,168308,51321,16750771,16746751,5226,16484,16817,10449,Tag0,unknown
1499246562749,0,113,2.48291015625E-5,44,70,53,168308,51321,16750771,16746751,5226,16484,16817,10449,Tag0,unknown
1499246562749,0,101,2.2192382812500002E-5,44,70,53,168308,51321,16750771,16746751,5226,16484,16817,10449,Tag0,unknown
1499246562750,0,84,1.8457031250000004E-5,44,70,53,168308,51321,16750771,16746751,5226,16484,16817,10449,Tag0,unknown
1499246562750,0,65,1.42822265625E-5,44,70,53,168308,51321,16750771,16746751,5226,16484,16817,10449,Tag0,unknown
1499246562750,0,55,1.20849609375E-5,44,70,53,168308,51321,16750771,16746751,5226,16484,16817,10449,Tag0,unknown
1499246562750,0,61,1.34033203125E-5,44,70,53,168308,51321,16750771,16746751,5226,16484,16817,10449,Tag0,unknown
1499246562751,0,44,9.66796875E-6,44,70,53,168308,51321,16750771,16746751,5226,16484,16817,10449,Tag0,unknown
1499246562751,0,28,6.15234375E-6,44,70,53,168308,51321,16750771,16746751,5226,16484,16817,10449,Tag0,unknown
1499246562751,0,36,7.91015625E-6,44,70,53,168308,51321,16750771,16746751,5226,16484,16817,10449,Tag0,unknown
1499246562751,0,53,1.1645507812500002E-5,44,70,53,168308,51321,16750771,16746751,5226,16484,16817,10449,Tag0,unknown
1499246562752,0,58,1.2744140625E-5,44,70,53,168308,51321,16750771,16746751,5226,16484,16817,10449,Tag0,unknown
1499246562752,0,44,9.66796875E-6,44,70,53,168308,51321,16750771,16746751,5226,16484,16817,10449,Tag0,unknown
1499246562752,0,34,7.4707031250000005E-6,44,70,53,168308,51321,16750771,16746751,5226,16484,16817,10449,Tag0,unknown
1499246562753,0,17,3.7353515625000003E-6,44,70,53,168308,51321,16750771,16746751,5226,16484,16817,10449,Tag0,unknown
1499246562753,0,7,1.5380859375E-6,44,70,53,168308,51321,16750771,16746751,5226,16484,16817,10449,Tag0,unknown
1499246562753,0,-259,-5.69091796875E-5,44,70,53,168308,51321,16750771,16746751,5226,16484,16817,10449,Tag0,unknown
1499246562754,0,-278,-6.108398437500001E-5,44,70,53,168308,51321,16750771,16746751,5226,16484,16817,10449,Tag0,unknown
1499246562754,0,8,1.7578125E-6,44,70,53,168308,51321,16750771,16746751,5226,16484,16817,10449,Tag0,unknown
1499246562754,0,84,1.8457031250000004E-5,44,70,53,168308,51321,16750771,16746751,5226,16484,16817,10449,Tag0,unknown
1499246562755,0,121,2.6586914062500003E-5,44,70,53,168308,51321,16750771,16746751,5226,16484,16817,10449,Tag0,unknown
1499246562755,0,118,2.5927734375E-5,44,70,53,168308,51321,16750771,16746751,5226,16484,16817,10449,Tag0,unknown
1499246562756,0,123,2.70263671875E-5,44,70,53,168308,51321,16750771,16746751,5226,16484,16817,10449,Tag0,unknown
1499246562756,0,-109,-2.39501953125E-5,44,70,53,168308,51321,16750771,16746751,5226,16484,16817,10449,Tag0,unknown
1499246562757,0,-118,-2.5927734375E-5,44,70,53,168308,51321,16750771,16746751,5226,16484,16817,10449,Tag0,unknown
1499246562757,0,103,2.26318359375E-5,44,70,53,168308,51321,16750771,16746751,5226,16484,16817,10449,Tag0,unknown
1499246562757,0,91,1.99951171875E-5,44,70,53,168308,51321,16750771,16746751,5226,16484,16817,10449,Tag0,unknown
1499246562758,0,104,2.28515625E-5,44,70,53,168308,51321,16750771,16746751,5226,16484,16817,10449,Tag0,unknown
1499246562758,0,106,2.3291015625000003E-5,44,70,53,168308,51321,16750771,16746751,5226,16484,16817,10449,Tag0,unknown
1499246562759,0,82,1.8017578124999998E-5,44,70,53,168308,51321,16750771,16746751,5226,16484,16817,10449,Tag0,unknown
1499246562759,0,57,1.2524414062500001E-5,44,70,53,168308,51321,16750771,16746751,5226,16484,16817,10449,Tag0,unknown
1499246562759,0,72,1.58203125E-5,44,70,53,168308,51321,16750771,16746751,5226,16484,16817,10449,Tag0,unknown
1499246562760,0,103,2.26318359375E-5,44,70,53,168308,51321,16750771,16746751,5226,16484,16817,10449,Tag0,unknown
1499246562760,0,80,1.7578125E-5,44,70,53,168308,51321,16750771,16746751,5226,16484,16817,10449,Tag0,unknown
1499246562760,0,16,3.515625E-6,44,70,53,168308,51321,16750771,16746751,5226,16484,16817,10449,Tag0,unknown
1499246562761,0,4,8.7890625E-7,44,70,53,168308,51321,16750771,16746751,5226,16484,16817,10449,Tag0,unknown
1499246562761,0,49,1.07666015625E-5,44,70,53,168308,51321,16750771,16746751,5226,16484,16817,10449,Tag0,unknown
1499246562762,0,112,2.4609375E-5,44,70,53,168308,51321,16750771,16746751,5226,16484,16817,10449,Tag0,unknown
1499246562762,0,-124,-2.724609375E-5,44,70,53,168308,51321,16750771,16746751,5226,16484,16817,10449,Tag0,unknown
1499246562762,0,88,1.93359375E-5,44,70,53,168308,51321,16750771,16746751,5226,16484,16817,10449,Tag0,unknown
1499246562763,0,26,5.712890625E-6,44,70,53,168308,51321,16750771,16746751,5226,16484,16817,10449,Tag0,unknown
1499246562763,0,24,5.2734375E-6,44,70,53,168308,51321,16750771,16746751,5226,16484,16817,10449,Tag0,unknown
1499246562763,0,66,1.4501953125E-5,44,70,53,168308,51321,16750771,16746751,5226,16484,16817,10449,Tag0,unknown
1499246562764,0,96,2.109375E-5,44,70,53,168308,51321,16750771,16746751,5226,16484,16817,10449,Tag0,unknown
1499246562764,0,101,2.2192382812500002E-5,44,70,53,168308,51321,16750771,16746751,5226,16484,16817,10449,Tag0,unknown
1499246562764,0,82,1.8017578124999998E-5,44,70,53,168308,51321,16750771,16746751,5226,16484,16817,10449,Tag0,unknown
1499246562764,0,67,1.4721679687500002E-5,44,70,53,168308,51321,16750771,16746751,5226,16484,16817,10449,Tag0,unknown
1499246562765,0,61,1.34033203125E-5,44,70,53,168308,51321,16750771,16746751,5226,16484,16817,10449,Tag0,unknown
1499246562765,0,60,1.318359375E-5,44,70,53,168308,51321,16750771,16746751,5226,16484,16817,10449,Tag0,unknown
1499246562765,0,64,1.40625E-5,44,70,53,168308,51321,16750771,16746751,5226,16484,16817,10449,Tag0,unknown
1499246562766,0,93,2.04345703125E-5,44,70,53,168308,51321,16750771,16746751,5226,16484,16817,10449,Tag0,unknown
1499246562766,0,-127,-2.79052734375E-5,44,70,53,168308,51321,16750771,16746751,5226,16484,16817,10449,Tag0,unknown
1499246562766,0,107,2.35107421875E-5,44,70,53,168308,51321,16750771,16746751,5226,16484,16817,10449,Tag0,unknown
1499246562767,0,81,1.77978515625E-5,44,70,53,168308,51321,16750771,16746751,5226,16484,16817,10449,Tag0,unknown
1499246562767,0,64,1.40625E-5,44,70,53,168308,51321,16750771,16746751,5226,16484,16817,10449,Tag0,unknown
1499246562767,0,71,1.56005859375E-5,44,70,53,168308,51321,16750771,16746751,5226,16484,16817,10449,Tag0,unknown
1499246562767,0,102,2.2412109374999998E-5,44,70,53,168308,51321,16750771,16746751,5226,16484,16817,10449,Tag0,unknown
1499246562768,0,117,2.5708007812499998E-5,44,70,53,168308,51321,16750771,16746751,5226,16484,16817,10449,Tag0,unknown
1499246562768,0,91,1.99951171875E-5,44,70,53,168308,51321,16750771,16746751,5226,16484,16817,10449,Tag0,unknown
1499246562768,0,64,1.40625E-5,44,70,53,168308,51321,16750771,16746751,5226,16484,16817,10449,Tag0,unknown
1499246562769,0,59,1.29638671875E-5,44,70,53,168308,51321,16750771,16746751,5226,16484,16817,10449,Tag0,unknown
1499246562769,0,57,1.2524414062500001E-5,44,70,53,168308,51321,16750771,16746751,5226,16484,16817,10449,Tag0,unknown
1499246562769,0,43,9.448242187500001E-6,44,70,53,168308,51321,16750771,16746751,5226,16484,16817,10449,Tag0,unknown
1499246562769,0,44,9.66796875E-6,44,70,53,168308,51321,16750771,16746751,5226,16484,16817,10449,Tag0,unknown
1499246562770,0,48,1.0546875E-5,44,70,53,168308,51321,16750771,16746751,5226,16484,16817,10449,Tag0,unknown
1499246562770,0,66,1.4501953125E-5,44,70,53,168308,51321,16750771,16746751,5226,16484,16817,10449,Tag0,unknown
1499246562770,0,102,2.2412109374999998E-5,44,70,53,168308,51321,16750771,16746751,5226,16484,16817,10449,Tag0,unknown
1499246562770,0,-128,-2.8125E-5,44,70,53,168308,51321,16750771,16746751,5226,16484,16817,10449,Tag0,unknown
1499246562771,0,122,2.6806640625E-5,44,70,53,168308,51321,16750771,16746751,5226,16484,16817,10449,Tag0,unknown
1499246562771,0,108,2.3730468750000002E-5,44,70,53,168308,51321,16750771,16746751,5226,16484,16817,10449,Tag0,unknown
1499246562771,0,96,2.109375E-5,44,70,53,168308,51321,16750771,16746751,5226,16484,16817,10449,Tag0,unknown
1499246562771,0,74,1.6259765625E-5,44,70,53,168308,51321,16750771,16746751,5226,16484,16817,10449,Tag0,unknown
1499246562772,0,55,1.20849609375E-5,44,70,53,168308,51321,16750771,16746751,5226,16484,16817,10449,Tag0,unknown
1499246562772,0,40,8.7890625E-6,44,70,53,168308,51321,16750771,16746751,5226,16484,16817,10449,Tag0,unknown
1499246562772,0,32,7.03125E-6,44,70,53,168308,51321,16750771,16746751,5226,16484,16817,10449,Tag0,unknown
1499246562773,0,20,4.39453125E-6,44,70,53,168308,51321,16750771,16746751,5226,16484,16817,10449,Tag0,unknown
1499246562773,0,10,2.197265625E-6,44,70,53,168308,51321,16750771,16746751,5226,16484,16817,10449,Tag0,unknown
1499246562773,0,24,5.2734375E-6,44,70,53,168308,51321,16750771,16746751,5226,16484,16817,10449,Tag0,unknown
1499246562773,0,60,1.318359375E-5,44,70,53,168308,51321,16750771,16746751,5226,16484,16817,10449,Tag0,unknown
1499246562774,0,106,2.3291015625000003E-5,44,70,53,168308,51321,16750771,16746751,5226,16484,16817,10449,Tag0,unknown
1499246562774,0,125,2.74658203125E-5,44,70,53,168308,51321,16750771,16746751,5226,16484,16817,10449,Tag0,unknown
1499246562774,0,105,2.30712890625E-5,44,70,53,168308,51321,16750771,16746751,5226,16484,16817,10449,Tag0,unknown
1499246562775,0,83,1.82373046875E-5,44,70,53,168308,51321,16750771,16746751,5226,16484,16817,10449,Tag0,unknown
1499246562775,0,106,2.3291015625000003E-5,44,70,53,168308,51321,16750771,16746751,5226,16484,16817,10449,Tag0,unknown
1499246562775,0,121,2.6586914062500003E-5,44,70,53,168308,51321,16750771,16746751,5226,16484,16817,10449,Tag0,unknown
1499246562776,0,72,1.58203125E-5,44,70,53,168308,51321,16750771,16746751,5226,16484,16817,10449,Tag0,unknown
1499246562776,0,22,4.833984375E-6,44,70,53,168308,51321,16750771,16746751,5226,16484,16817,10449,Tag0,unknown
1499246562776,0,13,2.8564453125E-6,44,70,53,168308,51321,16750771,16746751,5226,16484,16817,10449,Tag0,unknown
1499246562777,0,40,8.7890625E-6,44,70,53,168308,51321,16750771,16746751,5226,16484,16817,10449,Tag0,unknown
1499246562777,0,49,1.07666015625E-5,44,70,53,168308,51321,16750771,16746751,5226,16484,16817,10449,Tag0,unknown
1499246562777,0,64,1.40625E-5,44,70,53,168308,51321,16750771,16746751,5226,16484,16817,10449,Tag0,unknown
1499246562777,0,90,1.9775390625E-5,44,70,53,168308,51321,16750771,16746751,5226,16484,16817,10449,Tag0,unknown
1499246562778,0,112,2.4609375E-5,44,70,53,168308,51321,16750771,16746751,5226,16484,16817,10449,Tag0,unknown
1499246562778,0,-121,-2.6586914062500003E-5,44,70,53,168308,51321,16750771,16746751,5226,16484,16817,10449,Tag0,unknown
1499246562778,0,-118,-2.5927734375E-5,44,70,53,168308,51321,16750771,16746751,5226,16484,16817,10449,Tag0,unknown
1499246562778,0,114,2.5048828125000003E-5,44,70,53,168308,51321,16750771,16746751,5226,16484,16817,10449,Tag0,unknown
1499246562778,0,91,1.99951171875E-5,44,70,53,168308,51321,16750771,16746751,5226,16484,16817,10449,Tag0,unknown
1499246562779,0,90,1.9775390625E-5,44,70,53,168308,51321,16750771,16746751,5226,16484,16817,10449,Tag0,unknown
1499246562779,0,103,2.26318359375E-5,44,70,53,168308,51321,16750771,16746751,5226,16484,16817,10449,Tag0,unknown
1499246562779,0,106,2.3291015625000003E-5,44,70,53,168308,51321,16750771,16746751,5226,16484,16817,10449,Tag0,unknown
1499246562779,0,88,1.93359375E-5,44,70,53,168308,51321,16750771,16746751,5226,16484,16817,10449,Tag0,unknown
1499246562779,0,59,1.29638671875E-5,44,70,53,168308,51321,16750771,16746751,5226,16484,16817,10449,Tag0,unknown
1499246562780,0,50,1.0986328125E-5,44,70,53,168308,51321,16750771,16746751,5226,16484,16817,10449,Tag0,unknown
1499246562780,0,44,9.66796875E-6,44,70,53,168308,51321,16750771,16746751,5226,16484,16817,10449,Tag0,unknown
1499246562780,0,42,9.228515625000002E-6,44,70,53,168308,51321,16750771,16746751,5226,16484,16817,10449,Tag0,unknown
1499246562780,0,50,1.0986328125E-5,44,70,53,168308,51321,16750771,16746751,5226,16484,16817,10449,Tag0,unknown
1499246562781,0,74,1.6259765625E-5,44,70,53,168308,51321,16750771,16746751,5226,16484,16817,10449,Tag0,unknown
1499246562781,0,106,2.3291015625000003E-5,44,70,53,168308,51321,16750771,16746751,5226,16484,16817,10449,Tag0,unknown
1499246562781,0,105,2.30712890625E-5,44,70,53,168308,51321,16750771,16746751,5226,16484,16817,10449,Tag0,unknown
1499246562781,0,99,2.1752929687500003E-5,44,70,53,168308,51321,16750771,16746751,5226,16484,16817,10449,Tag0,unknown
1499246562782,0,102,2.2412109374999998E-5,44,70,53,168308,51321,16750771,16746751,5226,16484,16817,10449,Tag0,unknown
1499246562782,0,101,2.2192382812500002E-5,44,70,53,168308,51321,16750771,16746751,5226,16484,16817,10449,Tag0,unknown
1499246562782,0,70,1.5380859375E-5,44,70,53,168308,51321,16750771,16746751,5226,16484,16817,10449,Tag0,unknown
1499246562782,0,29,6.3720703125E-6,44,70,53,168308,51321,16750771,16746751,5226,16484,16817,10449,Tag0,unknown
1499246562783,0,18,3.955078125E-6,44,70,53,168308,51321,16750771,16746751,5226,16484,16817,10449,Tag0,unknown
1499246562783,0,36,7.91015625E-6,44,70,53,168308,51321,16750771,16746751,5226,16484,16817,10449,Tag0,unknown
1499246562783,0,51,1.1206054687499999E-5,44,70,53,168308,51321,16750771,16746751,5226,16484,16817,10449,Tag0,unknown
1499246562783,0,64,1.40625E-5,44,70,53,168308,51321,16750771,16746751,5226,16484,16817,10449,Tag0,unknown
1499246562783,0,72,1.58203125E-5,44,70,53,168308,51321,16750771,16746751,5226,16484,16817,10449,Tag0,unknown
1499246562784,0,87,1.91162109375E-5,44,70,53,168308,51321,16750771,16746751,5226,16484,16817,10449,Tag0,unknown
1499246562784,0,85,1.86767578125E-5,44,70,53,168308,51321,16750771,16746751,5226,16484,16817,10449,Tag0,unknown
1499246562784,0,85,1.86767578125E-5,44,70,53,168308,51321,16750771,16746751,5226,16484,16817,10449,Tag0,unknown
1499246562784,0,-124,-2.724609375E-5,44,70,53,168308,51321,16750771,16746751,5226,16484,16817,10449,Tag0,unknown
1499246562784,0,-78,-1.7138671875E-5,44,70,53,168308,51321,16750771,16746751,5226,16484,16817,10449,Tag0,unknown
1499246562785,0,-79,-1.7358398437500003E-5,44,70,53,168308,51321,16750771,16746751,5226,16484,16817,10449,Tag0,unknown
1499246562785,0,-100,-2.197265625E-5,44,70,53,168308,51321,16750771,16746751,5226,16484,16817,10449,Tag0,unknown
1499246562785,0,-126,-2.7685546875E-5,44,70,53,168308,51321,16750771,16746751,5226,16484,16817,10449,Tag0,unknown
1499246562786,0,-121,-2.6586914062500003E-5,44,70,53,168308,51321,16750771,16746751,5226,16484,16817,10449,Tag0,unknown
1499246562787,0,-76,-1.669921875E-5,44,70,53,168308,51321,16750771,16746751,5226,16484,16817,10449,Tag0,unknown
1499246562787,0,260,5.712890625E-5,44,70,53,168308,51321,16750771,16746751,5226,16484,16817,10449,Tag0,unknown
1499246562788,0,337,7.40478515625E-5,44,70,53,168308,51321,16750771,16746751,5226,16484,16817,10449,Tag0,unknown
1499246562788,0,346,7.6025390625E-5,44,70,53,168308,51321,16750771,16746751,5226,16484,16817,10449,Tag0,unknown
1499246562788,0,314,6.8994140625E-5,44,70,53,168308,51321,16750771,16746751,5226,16484,16817,10449,Tag0,unknown
1499246562788,0,294,6.4599609375E-5,44,70,53,168308,51321,16750771,16746751,5226,16484,16817,10449,Tag0,unknown
1499246562789,0,323,7.09716796875E-5,44,70,53,168308,51321,16750771,16746751,5226,16484,16817,10449,Tag0,unknown
1499246562789,0,132,2.900390625E-5,44,70,53,168308,51321,16750771,16746751,5226,16484,16817,10449,Tag0,unknown
1499246562789,0,179,3.93310546875E-5,44,70,53,168308,51321,16750771,16746751,5226,16484,16817,10449,Tag0,unknown
1499246562789,0,181,3.9770507812500004E-5,44,70,53,168308,51321,16750771,16746751,5226,16484,16817,10449,Tag0,unknown
1499246562790,0,183,4.02099609375E-5,44,70,53,168308,51321,16750771,16746751,5226,16484,16817,10449,Tag0,unknown
1499246562790,0,182,3.9990234375E-5,44,70,53,168308,51321,16750771,16746751,5226,16484,16817,10449,Tag0,unknown
1499246562790,0,160,3.515625E-5,44,70,53,168308,51321,16750771,16746751,5226,16484,16817,10449,Tag0,unknown
1499246562790,0,132,2.900390625E-5,44,70,53,168308,51321,16750771,16746751,5226,16484,16817,10449,Tag0,unknown
1499246562791,0,128,2.8125E-5,44,70,53,168308,51321,16750771,16746751,5226,16484,16817,10449,Tag0,unknown
1499246562791,0,137,3.0102539062499998E-5,44,70,53,168308,51321,16750771,16746751,5226,16484,16817,10449,Tag0,unknown
1499246562791,0,154,3.3837890625E-5,44,70,53,168308,51321,16750771,16746751,5226,16484,16817,10449,Tag0,unknown
1499246562791,0,201,4.41650390625E-5,44,70,53,168308,51321,16750771,16746751,5226,16484,16817,10449,Tag0,unknown
1499246562792,0,210,4.6142578125E-5,44,70,53,168308,51321,16750771,16746751,5226,16484,16817,10449,Tag0,unknown
1499246562792,0,181,3.9770507812500004E-5,44,70,53,168308,51321,16750771,16746751,5226,16484,16817,10449,Tag0,unknown
1499246562792,0,373,8.19580078125E-5,44,70,53,168308,51321,16750771,16746751,5226,16484,16817,10449,Tag0,unknown
1499246562792,0,294,6.4599609375E-5,44,70,53,168308,51321,16750771,16746751,5226,16484,16817,10449,Tag0,unknown
1499246562792,0,-20,-4.39453125E-6,44,70,53,168308,51321,16750771,16746751,5226,16484,16817,10449,Tag0,unknown
1499246562793,0,-32,-7.03125E-6,44,70,53,168308,51321,16750771,16746751,5226,16484,16817,10449,Tag0,unknown
1499246562793,0,-27,-5.9326171875000005E-6,44,70,53,168308,51321,16750771,16746751,5226,16484,16817,10449,Tag0,unknown
1499246562793,0,-40,-8.7890625E-6,44,70,53,168308,51321,16750771,16746751,5226,16484,16817,10449,Tag0,unknown
1499246562793,0,-68,-1.4941406250000001E-5,44,70,53,168308,51321,16750771,16746751,5226,16484,16817,10449,Tag0,unknown
1499246562793,0,-76,-1.669921875E-5,44,70,53,168308,51321,16750771,16746751,5226,16484,16817,10449,Tag0,unknown
1499246562794,0,-64,-1.40625E-5,44,70,53,168308,51321,16750771,16746751,5226,16484,16817,10449,Tag0,unknown
1499246562794,0,-77,-1.69189453125E-5,44,70,53,168308,51321,16750771,16746751,5226,16484,16817,10449,Tag0,unknown
1499246562794,0,-128,-2.8125E-5,44,70,53,168308,51321,16750771,16746751,5226,16484,16817,10449,Tag0,unknown
1499246562794,0,68,1.4941406250000001E-5,44,70,53,168308,51321,16750771,16746751,5226,16484,16817,10449,Tag0,unknown
1499246562795,0,52,1.142578125E-5,44,70,53,168308,51321,16750771,16746751,5226,16484,16817,10449,Tag0,unknown
1499246562795,0,69,1.51611328125E-5,44,70,53,168308,51321,16750771,16746751,5226,16484,16817,10449,Tag0,unknown
1499246562795,0,67,1.4721679687500002E-5,44,70,53,168308,51321,16750771,16746751,5226,16484,16817,10449,Tag0,unknown
1499246562795,0,40,8.7890625E-6,44,70,53,168308,51321,16750771,16746751,5226,16484,16817,10449,Tag0,unknown
1499246562797,0,0,0.0,44,70,53,168308,51321,16750771,16746751,5226,16484,16817,10449,Tag0,unknown
1499246562797,0,-305,-6.70166015625E-5,44,70,53,168308,51321,16750771,16746751,5226,16484,16817,10449,Tag0,unknown
1499246562798,0,-314,-6.8994140625E-5,44,70,53,168308,51321,16750771,16746751,5226,16484,16817,10449,Tag0,unknown
1499246562798,0,-310,-6.8115234375E-5,44,70,53,168308,51321,16750771,16746751,5226,16484,16817,10449,Tag0,unknown
1499246562798,0,-356,-7.822265625E-5,44,70,53,168308,51321,16750771,16746751,5226,16484,16817,10449,Tag0,unknown
1499246562798,0,-151,-3.31787109375E-5,44,70,53,168308,51321,16750771,16746751,5226,16484,16817,10449,Tag0,unknown
1499246562798,0,-168,-3.691406250000001E-5,44,70,53,168308,51321,16750771,16746751,5226,16484,16817,10449,Tag0,unknown
1499246562799,0,-141,-3.09814453125E-5,44,70,53,168308,51321,16750771,16746751,5226,16484,16817,10449,Tag0,unknown
1499246562799,0,-377,-8.28369140625E-5,44,70,53,168308,51321,16750771,16746751,5226,16484,16817,10449,Tag0,unknown
1499246562799,0,-131,-2.87841796875E-5,44,70,53,168308,51321,16750771,16746751,5226,16484,16817,10449,Tag0,unknown
1499246562799,0,-171,-3.75732421875E-5,44,70,53,168308,51321,16750771,16746751,5226,16484,16817,10449,Tag0,unknown
1499246562799,0,-218,-4.7900390625E-5,44,70,53,168308,51321,16750771,16746751,5226,16484,16817,10449,Tag0,unknown
1499246562799,0,-234,-5.1416015624999996E-5,44,70,53,168308,51321,16750771,16746751,5226,16484,16817,10449,Tag0,unknown
1499246562800,0,-246,-5.4052734375E-5,44,70,53,168308,51321,16750771,16746751,5226,16484,16817,10449,Tag0,unknown
1499246562800,0,-529,-1.162353515625E-4,44,70,53,168308,51321,16750771,16746751,5226,16484,16817,10449,Tag0,unknown
1499246562800,0,-542,-1.19091796875E-4,44,70,53,168308,51321,16750771,16746751,5226,16484,16817,10449,Tag0,unknown
1499246562800,0,-542,-1.19091796875E-4,44,70,53,168308,51321,16750771,16746751,5226,16484,16817,10449,Tag0,unknown
1499246562800,0,-540,-1.1865234375E-4,44,70,53,168308,51321,16750771,16746751,5226,16484,16817,10449,Tag0,unknown
1499246562801,0,-569,-1.250244140625E-4,44,70,53,168308,51321,16750771,16746751,5226,16484,16817,10449,Tag0,unknown
1499246562801,0,-594,-1.3051757812500002E-4,44,70,53,168308,51321,16750771,16746751,5226,16484,16817,10449,Tag0,unknown
1499246562801,0,-585,-1.285400390625E-4,44,70,53,168308,51321,16750771,16746751,5226,16484,16817,10449,Tag0,unknown
1499246562801,0,-571,-1.254638671875E-4,44,70,53,168308,51321,16750771,16746751,5226,16484,16817,10449,Tag0,unknown
1499246562802,0,-553,-1.215087890625E-4,44,70,53,168308,51321,16750771,16746751,5226,16484,16817,10449,Tag0,unknown
1499246562802,0,-253,-5.55908203125E-5,44,70,53,168308,51321,16750771,16746751,5226,16484,16817,10449,Tag0,unknown
1499246562802,0,-215,-4.72412109375E-5,44,70,53,168308,51321,16750771,16746751,5226,16484,16817,10449,Tag0,unknown
1499246562802,0,-210,-4.6142578125E-5,44,70,53,168308,51321,16750771,16746751,5226,16484,16817,10449,Tag0,unknown
1499246562802,0,-231,-5.07568359375E-5,44,70,53,168308,51321,16750771,16746751,5226,16484,16817,10449,Tag0,unknown
1499246562803,0,-514,-1.12939453125E-4,44,70,53,168308,51321,16750771,16746751,5226,16484,16817,10449,Tag0,unknown
1499246562803,0,-515,-1.131591796875E-4,44,70,53,168308,51321,16750771,16746751,5226,16484,16817,10449,Tag0,unknown
1499246562803,0,-252,-5.537109375E-5,44,70,53,168308,51321,16750771,16746751,5226,16484,16817,10449,Tag0,unknown
1499246562803,0,-230,-5.0537109375E-5,44,70,53,168308,51321,16750771,16746751,5226,16484,16817,10449,Tag0,unknown
1499246562803,0,-213,-4.68017578125E-5,44,70,53,168308,51321,16750771,16746751,5226,16484,16817,10449,Tag0,unknown
1499246562804,0,-206,-4.5263671875E-5,44,70,53,168308,51321,16750771,16746751,5226,16484,16817,10449,Tag0,unknown
1499246562804,0,-221,-4.85595703125E-5,44,70,53,168308,51321,16750771,16746751,5226,16484,16817,10449,Tag0,unknown
1499246562804,0,-234,-5.1416015624999996E-5,44,70,53,168308,51321,16750771,16746751,5226,16484,16817,10449,Tag0,unknown
1499246562804,0,-225,-4.94384765625E-5,44,70,53,168308,51321,16750771,16746751,5226,16484,16817,10449,Tag0,unknown
1499246562804,0,-215,-4.72412109375E-5,44,70,53,168308,51321,16750771,16746751,5226,16484,16817,10449,Tag0,unknown
1499246562805,0,-210,-4.6142578125E-5,44,70,53,168308,51321,16750771,16746751,5226,16484,16817,10449,Tag0,unknown
1499246562805,0,-194,-4.2626953125E-5,44,70,53,168308,51321,16750771,16746751,5226,16484,16817,10449,Tag0,unknown
1499246562805,0,-193,-4.2407226562500005E-5,44,70,53,168308,51321,16750771,16746751,5226,16484,16817,10449,Tag0,unknown
1499246562805,0,-216,-4.7460937500000004E-5,44,70,53,168308,51321,16750771,16746751,5226,16484,16817,10449,Tag0,unknown
1499246562806,0,-229,-5.03173828125E-5,44,70,53,168308,51321,16750771,16746751,5226,16484,16817,10449,Tag0,unknown
1499246562806,0,-230,-5.0537109375E-5,44,70,53,168308,51321,16750771,16746751,5226,16484,16817,10449,Tag0,unknown
1499246562806,0,-221,-4.85595703125E-5,44,70,53,168308,51321,16750771,16746751,5226,16484,16817,10449,Tag0,unknown
1499246562807,0,-214,-4.7021484375E-5,44,70,53,168308,51321,16750771,16746751,5226,16484,16817,10449,Tag0,unknown
1499246562807,0,-218,-4.7900390625E-5,44,70,53,168308,51321,16750771,16746751,5226,16484,16817,10449,Tag0,unknown
1499246562807,0,-220,-4.833984375E-5,44,70,53,168308,51321,16750771,16746751,5226,16484,16817,10449,Tag0,unknown
1499246562807,0,-210,-4.6142578125E-5,44,70,53,168308,51321,16750771,16746751,5226,16484,16817,10449,Tag0,unknown
1499246562807,0,-200,-4.39453125E-5,44,70,53,168308,51321,16750771,16746751,5226,16484,16817,10449,Tag0,unknown
1499246562808,0,-195,-4.28466796875E-5,44,70,53,168308,51321,16750771,16746751,5226,16484,16817,10449,Tag0,unknown
1499246562808,0,-182,-3.9990234375E-5,44,70,53,168308,51321,16750771,16746751,5226,16484,16817,10449,Tag0,unknown
1499246562808,0,-150,-3.2958984375E-5,44,70,53,168308,51321,16750771,16746751,5226,16484,16817,10449,Tag0,unknown
1499246562808,0,-379,-8.32763671875E-5,44,70,53,168308,51321,16750771,16746751,5226,16484,16817,10449,Tag0,unknown
1499246562808,0,-369,-8.10791015625E-5,44,70,53,168308,51321,16750771,16746751,5226,16484,16817,10449,Tag0,unknown
1499246562809,0,-369,-8.10791015625E-5,44,70,53,168308,51321,16750771,16746751,5226,16484,16817,10449,Tag0,unknown
1499246562809,0,-377,-8.28369140625E-5,44,70,53,168308,51321,16750771,16746751,5226,16484,16817,10449,Tag0,unknown
1499246562809,0,-355,-7.80029296875E-5,44,70,53,168308,51321,16750771,16746751,5226,16484,16817,10449,Tag0,unknown
1499246562809,0,-324,-7.119140625E-5,44,70,53,168308,51321,16750771,16746751,5226,16484,16817,10449,Tag0,unknown
1499246562809,0,-337,-7.40478515625E-5,44,70,53,168308,51321,16750771,16746751,5226,16484,16817,10449,Tag0,unknown
1499246562810,0,-355,-7.80029296875E-5,44,70,53,168308,51321,16750771,16746751,5226,16484,16817,10449,Tag0,unknown
1499246562810,0,-343,-7.53662109375E-5,44,70,53,168308,51321,16750771,16746751,5226,16484,16817,10449,Tag0,unknown
1499246562810,0,-338,-7.426757812499999E-5,44,70,53,168308,51321,16750771,16746751,5226,16484,16817,10449,Tag0,unknown
1499246562810,0,-329,-7.229003906250001E-5,44,70,53,168308,51321,16750771,16746751,5226,16484,16817,10449,Tag0,unknown
1499246562810,0,-308,-6.767578125E-5,44,70,53,168308,51321,16750771,16746751,5226,16484,16817,10449,Tag0,unknown
1499246562811,0,-290,-6.3720703125E-5,44,70,53,168308,51321,16750771,16746751,5226,16484,16817,10449,Tag0,unknown
1499246562811,0,-301,-6.613769531250001E-5,44,70,53,168308,51321,16750771,16746751,5226,16484,16817,10449,Tag0,unknown
1499246562811,0,-330,-7.2509765625E-5,44,70,53,168308,51321,16750771,16746751,5226,16484,16817,10449,Tag0,unknown
1499246562811,0,-328,-7.207031249999999E-5,44,70,53,168308,51321,16750771,16746751,5226,16484,16817,10449,Tag0,unknown
1499246562812,0,-300,-6.591796875E-5,44,70,53,168308,51321,16750771,16746751,5226,16484,16817,10449,Tag0,unknown
1499246562812,0,-285,-6.26220703125E-5,44,70,53,168308,51321,16750771,16746751,5226,16484,16817,10449,Tag0,unknown
1499246562812,0,-281,-6.17431640625E-5,44,70,53,168308,51321,16750771,16746751,5226,16484,16817,10449,Tag0,unknown
1499246562812,0,10,2.197265625E-6,44,70,53,168308,51321,16750771,16746751,5226,16484,16817,10449,Tag0,unknown
1499246562815,0,43,9.448242187500001E-6,44,70,60,168308,51321,16750771,16746751,5226,16484,16817,10449,Tag0,unknown
1499246562816,0,35,7.6904296875E-6,44,70,60,168308,51321,16750771,16746751,5226,16484,16817,10449,Tag0,unknown
1499246562816,0,39,8.5693359375E-6,44,70,60,168308,51321,16750771,16746751,5226,16484,16817,10449,Tag0,unknown
1499246562816,0,51,1.1206054687499999E-5,44,70,60,168308,51321,16750771,16746751,5226,16484,16817,10449,Tag0,unknown
1499246562817,0,41,9.008789062499999E-6,44,70,60,168308,51321,16750771,16746751,5226,16484,16817,10449,Tag0,unknown
1499246562817,0,40,8.7890625E-6,44,70,60,168308,51321,16750771,16746751,5226,16484,16817,10449,Tag0,unknown
1499246562817,0,68,1.4941406250000001E-5,44,70,60,168308,51321,16750771,16746751,5226,16484,16817,10449,Tag0,unknown
1499246562817,0,82,1.8017578124999998E-5,44,70,60,168308,51321,16750771,16746751,5226,16484,16817,10449,Tag0,unknown
1499246562817,0,75,1.64794921875E-5,44,70,60,168308,51321,16750771,16746751,5226,16484,16817,10449,Tag0,unknown
1499246562818,0,59,1.29638671875E-5,44,70,60,168308,51321,16750771,16746751,5226,16484,16817,10449,Tag0,unknown
1499246562818,0,65,1.42822265625E-5,44,70,60,168308,51321,16750771,16746751,5226,16484,16817,10449,Tag0,unknown
1499246562818,0,88,1.93359375E-5,44,70,60,168308,51321,16750771,16746751,5226,16484,16817,10449,Tag0,unknown
1499246562818,0,106,2.3291015625000003E-5,44,70,60,168308,51321,16750771,16746751,5226,16484,16817,10449,Tag0,unknown
1499246562818,0,-121,-2.6586914062500003E-5,44,70,60,168308,51321,16750771,16746751,5226,16484,16817,10449,Tag0,unknown
1499246562819,0,-90,-1.9775390625E-5,44,70,60,168308,51321,16750771,16746751,5226,16484,16817,10449,Tag0,unknown
1499246562819,0,-90,-1.9775390625E-5,44,70,60,168308,51321,16750771,16746751,5226,16484,16817,10449,Tag0,unknown
1499246562819,0,-105,-2.30712890625E-5,44,70,60,168308,51321,16750771,16746751,5226,16484,16817,10449,Tag0,unknown
1499246562819,0,-112,-2.4609375E-5,44,70,60,168308,51321,16750771,16746751,5226,16484,16817,10449,Tag0,unknown
1499246562820,0,-120,-2.63671875E-5,44,70,60,168308,51321,16750771,16746751,5226,16484,16817,10449,Tag0,unknown
1499246562820,0,-110,-2.4169921875E-5,44,70,60,168308,51321,16750771,16746751,5226,16484,16817,10449,Tag0,unknown
1499246562820,0,-107,-2.35107421875E-5,44,70,60,168308,51321,16750771,16746751,5226,16484,16817,10449,Tag0,unknown
1499246562820,0,-111,-2.43896484375E-5,44,70,60,168308,51321,16750771,16746751,5226,16484,16817,10449,Tag0,unknown
1499246562820,0,-111,-2.43896484375E-5,44,70,60,168308,51321,16750771,16746751,5226,16484,16817,10449,Tag0,unknown
1499246562821,0,-124,-2.724609375E-5,44,70,60,168308,51321,16750771,16746751,5226,16484,16817,10449,Tag0,unknown
1499246562821,0,122,2.6806640625E-5,44,70,60,168308,51321,16750771,16746751,5226,16484,16817,10449,Tag0,unknown
1499246562821,0,124,2.724609375E-5,44,70,60,168308,51321,16750771,16746751,5226,16484,16817,10449,Tag0,unknown
1499246562821,0,-128,-2.8125E-5,44,70,60,168308,51321,16750771,16746751,5226,16484,16817,10449,Tag0,unknown
1499246562821,0,113,2.48291015625E-5,44,70,60,168308,51321,16750771,16746751,5226,16484,16817,10449,Tag0,unknown
1499246562822,0,121,2.6586914062500003E-5,44,70,60,168308,51321,16750771,16746751,5226,16484,16817,10449,Tag0,unknown
1499246562822,0,-101,-2.2192382812500002E-5,44,70,60,168308,51321,16750771,16746751,5226,16484,16817,10449,Tag0,unknown
1499246562822,0,-88,-1.93359375E-5,44,70,60,168308,51321,16750771,16746751,5226,16484,16817,10449,Tag0,unknown
1499246562822,0,-107,-2.35107421875E-5,44,70,60,168308,51321,16750771,16746751,5226,16484,16817,10449,Tag0,unknown
1499246562822,0,121,2.6586914062500003E-5,44,70,60,168308,51321,16750771,16746751,5226,16484,16817,10449,Tag0,unknown
1499246562823,0,99,2.1752929687500003E-5,44,70,60,168308,51321,16750771,16746751,5226,16484,16817,10449,Tag0,unknown
1499246562823,0,83,1.82373046875E-5,44,70,60,168308,51321,16750771,16746751,5226,16484,16817,10449,Tag0,unknown
1499246562823,0,77,1.69189453125E-5,44,70,60,168308,51321,16750771,16746751,5226,16484,16817,10449,Tag0,unknown
1499246562823,0,99,2.1752929687500003E-5,44,70,60,168308,51321,16750771,16746751,5226,16484,16817,10449,Tag0,unknown
1499246562823,0,106,2.3291015625000003E-5,44,70,60,168308,51321,16750771,16746751,5226,16484,16817,10449,Tag0,unknown
1499246562824,0,88,1.93359375E-5,44,70,60,168308,51321,16750771,16746751,5226,16484,16817,10449,Tag0,unknown
1499246562824,0,76,1.669921875E-5,44,70,60,168308,51321,16750771,16746751,5226,16484,16817,10449,Tag0,unknown
1499246562824,0,93,2.04345703125E-5,44,70,60,168308,51321,16750771,16746751,5226,16484,16817,10449,Tag0,unknown
1499246562824,0,116,2.548828125E-5,44,70,60,168308,51321,16750771,16746751,5226,16484,16817,10449,Tag0,unknown
1499246562824,0,-127,-2.79052734375E-5,44,70,60,168308,51321,16750771,16746751,5226,16484,16817,10449,Tag0,unknown
1499246562825,0,-128,-2.8125E-5,44,70,60,168308,51321,16750771,16746751,5226,16484,16817,10449,Tag0,unknown
1499246562825,0,-122,-2.6806640625E-5,44,70,60,168308,51321,16750771,16746751,5226,16484,16817,10449,Tag0,unknown
1499246562825,0,122,2.6806640625E-5,44,70,60,168308,51321,16750771,16746751,5226,16484,16817,10449,Tag0,unknown
1499246562825,0,107,2.35107421875E-5,44,70,60,168308,51321,16750771,16746751,5226,16484,16817,10449,Tag0,unknown
1499246562828,0,115,2.52685546875E-5,44,70,60,168308,51321,16750771,16746751,5226,16484,16817,10449,Tag0,unknown
1499246562829,0,-115,-2.52685546875E-5,44,70,60,168308,51321,16750771,16746751,5226,16484,16817,10449,Tag0,unknown
1499246562829,0,-88,-1.93359375E-5,44,70,60,168308,51321,16750771,16746751,5226,16484,16817,10449,Tag0,unknown
1499246562829,0,-84,-1.8457031250000004E-5,44,70,60,168308,51321,16750771,16746751,5226,16484,16817,10449,Tag0,unknown
1499246562829,0,-94,-2.0654296875000002E-5,44,70,60,168308,51321,16750771,16746751,5226,16484,16817,10449,Tag0,unknown
1499246562829,0,-118,-2.5927734375E-5,44,70,60,168308,51321,16750771,16746751,5226,16484,16817,10449,Tag0,unknown
1499246562830,0,-124,-2.724609375E-5,44,70,60,168308,51321,16750771,16746751,5226,16484,16817,10449,Tag0,unknown
1499246562830,0,-127,-2.79052734375E-5,44,70,60,168308,51321,16750771,16746751,5226,16484,16817,10449,Tag0,unknown
1499246562830,0,98,2.1533203125E-5,44,70,60,168308,51321,16750771,16746751,5226,16484,16817,10449,Tag0,unknown
1499246562830,0,70,1.5380859375E-5,44,70,60,168308,51321,16750771,16746751,5226,16484,16817,10449,Tag0,unknown
1499246562830,0,69,1.51611328125E-5,44,70,60,168308,51321,16750771,16746751,5226,16484,16817,10449,Tag0,unknown
1499246562831,0,87,1.91162109375E-5,44,70,60,168308,51321,16750771,16746751,5226,16484,16817,10449,Tag0,unknown
1499246562831,0,74,1.6259765625E-5,44,70,60,168308,51321,16750771,16746751,5226,16484,16817,10449,Tag0,unknown
1499246562831,0,32,7.03125E-6,44,70,60,168308,51321,16750771,16746751,5226,16484,16817,10449,Tag0,unknown
1499246562831,0,5,1.0986328125E-6,44,70,60,168308,51321,16750771,16746751,5226,16484,16817,10449,Tag0,unknown
1499246562831,0,7,1.5380859375E-6,44,70,60,168308,51321,16750771,16746751,5226,16484,16817,10449,Tag0,unknown
1499246562832,0,38,8.349609375E-6,44,70,60,168308,51321,16750771,16746751,5226,16484,16817,10449,Tag0,unknown
1499246562832,0,91,1.99951171875E-5,44,70,60,168308,51321,16750771,16746751,5226,16484,16817,10449,Tag0,unknown
1499246562832,0,-119,-2.6147460937500004E-5,44,70,60,168308,51321,16750771,16746751,5226,16484,16817,10449,Tag0,unknown
1499246562832,0,-86,-1.8896484375000003E-5,44,70,60,168308,51321,16750771,16746751,5226,16484,16817,10449,Tag0,unknown
1499246562834,0,-76,-1.669921875E-5,44,70,60,168308,51321,16750771,16746751,5226,16484,16817,10449,Tag0,unknown
1499246562834,0,-108,-2.3730468750000002E-5,44,70,60,168308,51321,16750771,16746751,5226,16484,16817,10449,Tag0,unknown
1499246562834,0,99,2.1752929687500003E-5,44,70,60,168308,51321,16750771,16746751,5226,16484,16817,10449,Tag0,unknown
1499246562834,0,75,1.64794921875E-5,44,70,60,168308,51321,16750771,16746751,5226,16484,16817,10449,Tag0,unknown
1499246562834,0,96,2.109375E-5,44,70,60,168308,51321,16750771,16746751,5226,16484,16817,10449,Tag0,unknown
1499246562835,0,106,2.3291015625000003E-5,44,70,60,168308,51321,16750771,16746751,5226,16484,16817,10449,Tag0,unknown
1499246562835,0,89,1.95556640625E-5,44,70,60,168308,51321,16750771,16746751,5226,16484,16817,10449,Tag0,unknown
1499246562835,0,86,1.8896484375000003E-5,44,70,60,168308,51321,16750771,16746751,5226,16484,16817,10449,Tag0,unknown
1499246562835,0,91,1.99951171875E-5,44,70,60,168308,51321,16750771,16746751,5226,16484,16817,10449,Tag0,unknown
1499246562835,0,99,2.1752929687500003E-5,44,70,60,168308,51321,16750771,16746751,5226,16484,16817,10449,Tag0,unknown
1499246562836,0,102,2.2412109374999998E-5,44,70,60,168308,51321,16750771,16746751,5226,16484,16817,10449,Tag0,unknown
1499246562836,0,101,2.2192382812500002E-5,44,70,60,168308,51321,16750771,16746751,5226,16484,16817,10449,Tag0,unknown
1499246562836,0,90,1.9775390625E-5,44,70,60,168308,51321,16750771,16746751,5226,16484,16817,10449,Tag0,unknown
1499246562836,0,96,2.109375E-5,44,70,60,168308,51321,16750771,16746751,5226,16484,16817,10449,Tag0,unknown
1499246562837,0,112,2.4609375E-5,44,70,60,168308,51321,16750771,16746751,5226,16484,16817,10449,Tag0,unknown
1499246562837,0,109,2.39501953125E-5,44,70,60,168308,51321,16750771,16746751,5226,16484,16817,10449,Tag0,unknown
1499246562837,0,90,1.9775390625E-5,44,70,60,168308,51321,16750771,16746751,5226,16484,16817,10449,Tag0,unknown
1499246562837,0,81,1.77978515625E-5,44,70,60,168308,51321,16750771,16746751,5226,16484,16817,10449,Tag0,unknown
1499246562838,0,71,1.56005859375E-5,44,70,60,168308,51321,16750771,16746751,5226,16484,16817,10449,Tag0,unknown
1499246562838,0,56,1.23046875E-5,44,70,60,168308,51321,16750771,16746751,5226,16484,16817,10449,Tag0,unknown
1499246562838,0,42,9.228515625000002E-6,44,70,60,168308,51321,16750771,16746751,5226,16484,16817,10449,Tag0,unknown
1499246562838,0,38,8.349609375E-6,44,70,60,168308,51321,16750771,16746751,5226,16484,16817,10449,Tag0,unknown
1499246562838,0,39,8.5693359375E-6,44,70,60,168308,51321,16750771,16746751,5226,16484,16817,10449,Tag0,unknown
1499246562839,0,60,1.318359375E-5,44,70,60,168308,51321,16750771,16746751,5226,16484,16817,10449,Tag0,unknown
1499246562839,0,98,2.1533203125E-5,44,70,60,168308,51321,16750771,16746751,5226,16484,16817,10449,Tag0,unknown
1499246562839,0,120,2.63671875E-5,44,70,60,168308,51321,16750771,16746751,5226,16484,16817,10449,Tag0,unknown
1499246562839,0,-127,-2.79052734375E-5,44,70,60,168308,51321,16750771,16746751,5226,16484,16817,10449,Tag0,unknown
1499246562839,0,123,2.70263671875E-5,44,70,60,168308,51321,16750771,16746751,5226,16484,16817,10449,Tag0,unknown
1499246562840,0,125,2.74658203125E-5,44,70,60,168308,51321,16750771,16746751,5226,16484,16817,10449,Tag0,unknown
1499246562840,0,123,2.70263671875E-5,44,70,60,168308,51321,16750771,16746751,5226,16484,16817,10449,Tag0,unknown
1499246562840,0,105,2.30712890625E-5,44,70,60,168308,51321,16750771,16746751,5226,16484,16817,10449,Tag0,unknown
1499246562840,0,93,2.04345703125E-5,44,70,60,168308,51321,16750771,16746751,5226,16484,16817,10449,Tag0,unknown
1499246562840,0,109,2.39501953125E-5,44,70,60,168308,51321,16750771,16746751,5226,16484,16817,10449,Tag0,unknown
1499246562840,0,117,2.5708007812499998E-5,44,70,60,168308,51321,16750771,16746751,5226,16484,16817,10449,Tag0,unknown
1499246562841,0,108,2.3730468750000002E-5,44,70,60,168308,51321,16750771,16746751,5226,16484,16817,10449,Tag0,unknown
1499246562841,0,112,2.4609375E-5,44,70,60,168308,51321,16750771,16746751,5226,16484,16817,10449,Tag0,unknown
1499246562841,0,114,2.5048828125000003E-5,44,70,60,168308,51321,16750771,16746751,5226,16484,16817,10449,Tag0,unknown
1499246562841,0,114,2.5048828125000003E-5,44,70,60,168308,51321,16750771,16746751,5226,16484,16817,10449,Tag0,unknown
1499246562841,0,-123,-2.70263671875E-5,44,70,60,168308,51321,16750771,16746751,5226,16484,16817,10449,Tag0,unknown
1499246562841,0,124,2.724609375E-5,44,70,60,168308,51321,16750771,16746751,5226,16484,16817,10449,Tag0,unknown
1499246562842,0,99,2.1752929687500003E-5,44,70,60,168308,51321,16750771,16746751,5226,16484,16817,10449,Tag0,unknown
1499246562842,0,117,2.5708007812499998E-5,44,70,60,168308,51321,16750771,16746751,5226,16484,16817,10449,Tag0,unknown
1499246562842,0,-105,-2.30712890625E-5,44,70,60,168308,51321,16750771,16746751,5226,16484,16817,10449,Tag0,unknown
1499246562842,0,-100,-2.197265625E-5,44,70,60,168308,51321,16750771,16746751,5226,16484,16817,10449,Tag0,unknown
1499246562842,0,124,2.724609375E-5,44,70,60,168308,51321,16750771,16746751,5226,16484,16817,10449,Tag0,unknown
1499246562842,0,90,1.9775390625E-5,44,70,60,168308,51321,16750771,16746751,5226,16484,16817,10449,Tag0,unknown
1499246562843,0,90,1.9775390625E-5,44,70,60,168308,51321,16750771,16746751,5226,16484,16817,10449,Tag0,unknown
1499246562843,0,113,2.48291015625E-5,44,70,60,168308,51321,16750771,16746751,5226,16484,16817,10449,Tag0,unknown
1499246562843,0,-128,-2.8125E-5,44,70,60,168308,51321,16750771,16746751,5226,16484,16817,10449,Tag0,unknown
1499246562843,0,-124,-2.724609375E-5,44,70,60,168308,51321,16750771,16746751,5226,16484,16817,10449,Tag0,unknown
1499246562843,0,-125,-2.74658203125E-5,44,70,60,168308,51321,16750771,16746751,5226,16484,16817,10449,Tag0,unknown
1499246562843,0,-120,-2.63671875E-5,44,70,60,168308,51321,16750771,16746751,5226,16484,16817,10449,Tag0,unknown
1499246562844,0,-128,-2.8125E-5,44,70,60,168308,51321,16750771,16746751,5226,16484,16817,10449,Tag0,unknown
1499246562844,0,107,2.35107421875E-5,44,70,60,168308,51321,16750771,16746751,5226,16484,16817,10449,Tag0,unknown
1499246562844,0,104,2.28515625E-5,44,70,60,168308,51321,16750771,16746751,5226,16484,16817,10449,Tag0,unknown
1499246562844,0,103,2.26318359375E-5,44,70,60,168308,51321,16750771,16746751,5226,16484,16817,10449,Tag0,unknown
1499246562844,0,97,2.13134765625E-5,44,70,60,168308,51321,16750771,16746751,5226,16484,16817,10449,Tag0,unknown
1499246562844,0,69,1.51611328125E-5,44,70,60,168308,51321,16750771,16746751,5226,16484,16817,10449,Tag0,unknown
1499246562845,0,35,7.6904296875E-6,44,70,60,168308,51321,16750771,16746751,5226,16484,16817,10449,Tag0,unknown
1499246562845,0,12,2.63671875E-6,44,70,60,168308,51321,16750771,16746751,5226,16484,16817,10449,Tag0,unknown
1499246562845,0,23,5.0537109375E-6,44,70,60,168308,51321,16750771,16746751,5226,16484,16817,10449,Tag0,unknown
1499246562845,0,55,1.20849609375E-5,44,70,60,168308,51321,16750771,16746751,5226,16484,16817,10449,Tag0,unknown
1499246562846,0,91,1.99951171875E-5,44,70,60,168308,51321,16750771,16746751,5226,16484,16817,10449,Tag0,unknown
1499246562846,0,103,2.26318359375E-5,44,70,60,168308,51321,16750771,16746751,5226,16484,16817,10449,Tag0,unknown
1499246562846,0,104,2.28515625E-5,44,70,60,168308,51321,16750771,16746751,5226,16484,16817,10449,Tag0,unknown
1499246562846,0,96,2.109375E-5,44,70,60,168308,51321,16750771,16746751,5226,16484,16817,10449,Tag0,unknown
1499246562847,0,75,1.64794921875E-5,44,70,60,168308,51321,16750771,16746751,5226,16484,16817,10449,Tag0,unknown
1499246562847,0,74,1.6259765625E-5,44,70,60,168308,51321,16750771,16746751,5226,16484,16817,10449,Tag0,unknown
1499246562847,0,86,1.8896484375000003E-5,44,70,60,168308,51321,16750771,16746751,5226,16484,16817,10449,Tag0,unknown
1499246562847,0,80,1.7578125E-5,44,70,60,168308,51321,16750771,16746751,5226,16484,16817,10449,Tag0,unknown
1499246562847,0,54,1.1865234375000001E-5,44,70,60,168308,51321,16750771,16746751,5226,16484,16817,10449,Tag0,unknown
1499246562847,0,60,1.318359375E-5,44,70,60,168308,51321,16750771,16746751,5226,16484,16817,10449,Tag0,unknown
1499246562848,0,91,1.99951171875E-5,44,70,60,168308,51321,16750771,16746751,5226,16484,16817,10449,Tag0,unknown
1499246562848,0,104,2.28515625E-5,44,70,60,168308,51321,16750771,16746751,5226,16484,16817,10449,Tag0,unknown
1499246562849,0,107,2.35107421875E-5,44,70,60,168308,51321,16750771,16746751,5226,16484,16817,10449,Tag0,unknown
1499246562849,0,100,2.197265625E-5,44,70,60,168308,51321,16750771,16746751,5226,16484,16817,10449,Tag0,unknown
1499246562849,0,96,2.109375E-5,44,70,60,168308,51321,16750771,16746751,5226,16484,16817,10449,Tag0,unknown
1499246562849,0,103,2.26318359375E-5,44,70,60,168308,51321,16750771,16746751,5226,16484,16817,10449,Tag0,unknown
1499246562849,0,114,2.5048828125000003E-5,44,70,60,168308,51321,16750771,16746751,5226,16484,16817,10449,Tag0,unknown
1499246562850,0,117,2.5708007812499998E-5,44,70,60,168308,51321,16750771,16746751,5226,16484,16817,10449,Tag0,unknown
1499246562850,0,90,1.9775390625E-5,44,70,60,168308,51321,16750771,16746751,5226,16484,16817,10449,Tag0,unknown
1499246562850,0,61,1.34033203125E-5,44,70,60,168308,51321,16750771,16746751,5226,16484,16817,10449,Tag0,unknown
1499246562850,0,49,1.07666015625E-5,44,70,60,168308,51321,16750771,16746751,5226,16484,16817,10449,Tag0,unknown
1499246562851,0,54,1.1865234375000001E-5,44,70,60,168308,51321,16750771,16746751,5226,16484,16817,10449,Tag0,unknown
1499246562851,0,57,1.2524414062500001E-5,44,70,60,168308,51321,16750771,16746751,5226,16484,16817,10449,Tag0,unknown
1499246562851,0,67,1.4721679687500002E-5,44,70,60,168308,51321,16750771,16746751,5226,16484,16817,10449,Tag0,unknown
1499246562851,0,88,1.93359375E-5,44,70,60,168308,51321,16750771,16746751,5226,16484,16817,10449,Tag0,unknown
1499246562851,0,101,2.2192382812500002E-5,44,70,60,168308,51321,16750771,16746751,5226,16484,16817,10449,Tag0,unknown
1499246562851,0,104,2.28515625E-5,44,70,60,168308,51321,16750771,16746751,5226,16484,16817,10449,Tag0,unknown
1499246562852,0,112,2.4609375E-5,44,70,60,168308,51321,16750771,16746751,5226,16484,16817,10449,Tag0,unknown
1499246562852,0,121,2.6586914062500003E-5,44,70,60,168308,51321,16750771,16746751,5226,16484,16817,10449,Tag0,unknown
1499246562852,0,-120,-2.63671875E-5,44,70,60,168308,51321,16750771,16746751,5226,16484,16817,10449,Tag0,unknown
1499246562852,0,-106,-2.3291015625000003E-5,44,70,60,168308,51321,16750771,16746751,5226,16484,16817,10449,Tag0,unknown
1499246562852,0,-109,-2.39501953125E-5,44,70,60,168308,51321,16750771,16746751,5226,16484,16817,10449,Tag0,unknown
1499246562852,0,116,2.548828125E-5,44,70,60,168308,51321,16750771,16746751,5226,16484,16817,10449,Tag0,unknown
1499246562853,0,84,1.8457031250000004E-5,44,70,60,168308,51321,16750771,16746751,5226,16484,16817,10449,Tag0,unknown
1499246562853,0,70,1.5380859375E-5,44,70,60,168308,51321,16750771,16746751,5226,16484,16817,10449,Tag0,unknown
1499246562853,0,72,1.58203125E-5,44,70,60,168308,51321,16750771,16746751,5226,16484,16817,10449,Tag0,unknown
1499246562853,0,80,1.7578125E-5,44,70,60,168308,51321,16750771,16746751,5226,16484,16817,10449,Tag0,unknown
1499246562853,0,75,1.64794921875E-5,44,70,60,168308,51321,16750771,16746751,5226,16484,16817,10449,Tag0,unknown
1499246562854,0,73,1.6040039062500002E-5,44,70,60,168308,51321,16750771,16746751,5226,16484,16817,10449,Tag0,unknown
1499246562854,0,74,1.6259765625E-5,44,70,60,168308,51321,16750771,16746751,5226,16484,16817,10449,Tag0,unknown
1499246562854,0,83,1.82373046875E-5,44,70,60,168308,51321,16750771,16746751,5226,16484,16817,10449,Tag0,unknown
1499246562854,0,104,2.28515625E-5,44,70,60,168308,51321,16750771,16746751,5226,16484,16817,10449,Tag0,unknown
1499246562854,0,119,2.6147460937500004E-5,44,70,60,168308,51321,16750771,16746751,5226,16484,16817,10449,Tag0,unknown
1499246562854,0,114,2.5048828125000003E-5,44,70,60,168308,51321,16750771,16746751,5226,16484,16817,10449,Tag0,unknown
1499246562855,0,98,2.1533203125E-5,44,70,60,168308,51321,16750771,16746751,5226,16484,16817,10449,Tag0,unknown
1499246562855,0,88,1.93359375E-5,44,70,60,168308,51321,16750771,16746751,5226,16484,16817,10449,Tag0,unknown
1499246562855,0,87,1.91162109375E-5,44,70,60,168308,51321,16750771,16746751,5226,16484,16817,10449,Tag0,unknown
1499246562855,0,92,2.021484375E-5,44,70,60,168308,51321,16750771,16746751,5226,16484,16817,10449,Tag0,unknown
1499246562855,0,96,2.109375E-5,44,70,60,168308,51321,16750771,16746751,5226,16484,16817,10449,Tag0,unknown
1499246562856,0,90,1.9775390625E-5,44,70,60,168308,51321,16750771,16746751,5226,16484,16817,10449,Tag0,unknown
1499246562856,0,96,2.109375E-5,44,70,60,168308,51321,16750771,16746751,5226,16484,16817,10449,Tag0,unknown
1499246562876,0,73,1.6040039062500002E-5,50,56,60,68265,16754981,9425,2262,1747,5013,4193,667,Tag0,unknown
1499246562877,0,48,1.0546875E-5,50,56,60,68265,16754981,9425,2262,1747,5013,4193,667,Tag0,unknown
1499246562877,0,44,9.66796875E-6,50,56,60,68265,16754981,9425,2262,1747,5013,4193,667,Tag0,unknown
1499246562877,0,66,1.4501953125E-5,50,56,60,68265,16754981,9425,2262,1747,5013,4193,667,Tag0,unknown
1499246562877,0,98,2.1533203125E-5,50,56,60,68265,16754981,9425,2262,1747,5013,4193,667,Tag0,unknown
1499246562877,0,107,2.35107421875E-5,50,56,60,68265,16754981,9425,2262,1747,5013,4193,667,Tag0,unknown
1499246562877,0,100,2.197265625E-5,50,56,60,68265,16754981,9425,2262,1747,5013,4193,667,Tag0,unknown
1499246562878,0,91,1.99951171875E-5,50,56,60,68265,16754981,9425,2262,1747,5013,4193,667,Tag0,unknown
1499246562885,0,97,2.13134765625E-5,50,56,60,68265,16754981,9425,2262,1747,5013,4193,667,Tag0,unknown
1499246562886,0,96,2.109375E-5,50,56,60,68265,16754981,9425,2262,1747,5013,4193,667,Tag0,unknown
1499246562886,0,91,1.99951171875E-5,50,56,60,68265,16754981,9425,2262,1747,5013,4193,667,Tag0,unknown
1499246562886,0,100,2.197265625E-5,50,56,60,68265,16754981,9425,2262,1747,5013,4193,667,Tag0,unknown
1499246562886,0,100,2.197265625E-5,50,56,60,68265,16754981,9425,2262,1747,5013,4193,667,Tag0,unknown
1499246562886,0,84,1.8457031250000004E-5,50,56,60,68265,16754981,9425,2262,1747,5013,4193,667,Tag0,unknown
1499246562886,0,74,1.6259765625E-5,50,56,60,68265,16754981,9425,2262,1747,5013,4193,667,Tag0,unknown
1499246562887,0,77,1.69189453125E-5,50,56,60,68265,16754981,9425,2262,1747,5013,4193,667,Tag0,unknown
1499246562887,0,85,1.86767578125E-5,50,56,60,68265,16754981,9425,2262,1747,5013,4193,667,Tag0,unknown
1499246562887,0,81,1.77978515625E-5,50,56,60,68265,16754981,9425,2262,1747,5013,4193,667,Tag0,unknown
1499246562887,0,72,1.58203125E-5,50,56,60,68265,16754981,9425,2262,1747,5013,4193,667,Tag0,unknown
1499246562887,0,65,1.42822265625E-5,50,56,60,68265,16754981,9425,2262,1747,5013,4193,667,Tag0,unknown
1499246562887,0,67,1.4721679687500002E-5,50,56,60,68265,16754981,9425,2262,1747,5013,4193,667,Tag0,unknown
1499246562888,0,66,1.4501953125E-5,50,56,60,68265,16754981,9425,2262,1747,5013,4193,667,Tag0,unknown
1499246562888,0,65,1.42822265625E-5,50,56,60,68265,16754981,9425,2262,1747,5013,4193,667,Tag0,unknown
1499246562888,0,86,1.8896484375000003E-5,50,56,60,68265,16754981,9425,2262,1747,5013,4193,667,Tag0,unknown
1499246562888,0,107,2.35107421875E-5,50,56,60,68265,16754981,9425,2262,1747,5013,4193,667,Tag0,unknown
1499246562888,0,107,2.35107421875E-5,50,56,60,68265,16754981,9425,2262,1747,5013,4193,667,Tag0,unknown
1499246562888,0,97,2.13134765625E-5,50,56,60,68265,16754981,9425,2262,1747,5013,4193,667,Tag0,unknown
1499246562888,0,90,1.9775390625E-5,50,56,60,68265,16754981,9425,2262,1747,5013,4193,667,Tag0,unknown
1499246562889,0,87,1.91162109375E-5,50,56,60,68265,16754981,9425,2262,1747,5013,4193,667,Tag0,unknown
1499246562889,0,96,2.109375E-5,50,56,60,68265,16754981,9425,2262,1747,5013,4193,667,Tag0,unknown
1499246562889,0,98,2.1533203125E-5,50,56,60,68265,16754981,9425,2262,1747,5013,4193,667,Tag0,unknown
1499246562889,0,91,1.99951171875E-5,50,56,60,68265,16754981,9425,2262,1747,5013,4193,667,Tag0,unknown
1499246562889,0,88,1.93359375E-5,50,56,60,68265,16754981,9425,2262,1747,5013,4193,667,Tag0,unknown
1499246562889,0,100,2.197265625E-5,50,56,60,68265,16754981,9425,2262,1747,5013,4193,667,Tag0,unknown
1499246562889,0,113,2.48291015625E-5,50,56,60,68265,16754981,9425,2262,1747,5013,4193,667,Tag0,unknown
1499246562890,0,113,2.48291015625E-5,50,56,60,68265,16754981,9425,2262,1747,5013,4193,667,Tag0,unknown
1499246562890,0,102,2.2412109374999998E-5,50,56,60,68265,16754981,9425,2262,1747,5013,4193,667,Tag0,unknown
1499246562890,0,87,1.91162109375E-5,50,56,60,68265,16754981,9425,2262,1747,5013,4193,667,Tag0,unknown
1499246562890,0,81,1.77978515625E-5,50,56,60,68265,16754981,9425,2262,1747,5013,4193,667,Tag0,unknown
1499246562890,0,88,1.93359375E-5,50,56,60,68265,16754981,9425,2262,1747,5013,4193,667,Tag0,unknown
1499246562890,0,73,1.6040039062500002E-5,50,56,60,68265,16754981,9425,2262,1747,5013,4193,667,Tag0,unknown
1499246562890,0,42,9.228515625000002E-6,50,56,60,68265,16754981,9425,2262,1747,5013,4193,667,Tag0,unknown
1499246562891,0,22,4.833984375E-6,50,56,60,68265,16754981,9425,2262,1747,5013,4193,667,Tag0,unknown
1499246562891,0,27,5.9326171875000005E-6,50,56,60,68265,16754981,9425,2262,1747,5013,4193,667,Tag0,unknown
1499246562891,0,43,9.448242187500001E-6,50,56,60,68265,16754981,9425,2262,1747,5013,4193,667,Tag0,unknown
1499246562891,0,40,8.7890625E-6,50,56,60,68265,16754981,9425,2262,1747,5013,4193,667,Tag0,unknown
1499246562891,0,24,5.2734375E-6,50,56,60,68265,16754981,9425,2262,1747,5013,4193,667,Tag0,unknown
1499246562891,0,3,6.591796875E-7,50,56,60,68265,16754981,9425,2262,1747,5013,4193,667,Tag0,unknown
1499246562891,0,0,0.0,50,56,60,68265,16754981,9425,2262,1747,5013,4193,667,Tag0,unknown
1499246562892,0,7,1.5380859375E-6,50,56,60,68265,16754981,9425,2262,1747,5013,4193,667,Tag0,unknown
1499246562892,0,4,8.7890625E-7,50,56,60,68265,16754981,9425,2262,1747,5013,4193,667,Tag0,unknown
1499246562892,0,-267,-5.86669921875E-5,50,56,60,68265,16754981,9425,2262,1747,5013,4193,667,Tag0,unknown
1499246562892,0,-298,-6.5478515625E-5,50,56,60,68265,16754981,9425,2262,1747,5013,4193,667,Tag0,unknown
1499246562892,0,-307,-6.74560546875E-5,50,56,60,68265,16754981,9425,2262,1747,5013,4193,667,Tag0,unknown
1499246562892,0,-274,-6.0205078124999997E-5,50,56,60,68265,16754981,9425,2262,1747,5013,4193,667,Tag0,unknown
1499246562893,0,16,3.515625E-6,50,56,60,68265,16754981,9425,2262,1747,5013,4193,667,Tag0,unknown
1499246562893,0,20,4.39453125E-6,50,56,60,68265,16754981,9425,2262,1747,5013,4193,667,Tag0,unknown
1499246562893,0,27,5.9326171875000005E-6,50,56,60,68265,16754981,9425,2262,1747,5013,4193,667,Tag0,unknown
1499246562893,0,66,1.4501953125E-5,50,56,60,68265,16754981,9425,2262,1747,5013,4193,667,Tag0,unknown
1499246562893,0,114,2.5048828125000003E-5,50,56,60,68265,16754981,9425,2262,1747,5013,4193,667,Tag0,unknown
1499246562893,0,-101,-2.2192382812500002E-5,50,56,60,68265,16754981,9425,2262,1747,5013,4193,667,Tag0,unknown
1499246562894,0,-87,-1.91162109375E-5,50,56,60,68265,16754981,9425,2262,1747,5013,4193,667,Tag0,unknown
1499246562894,0,-96,-2.109375E-5,50,56,60,68265,16754981,9425,2262,1747,5013,4193,667,Tag0,unknown
1499246562894,0,-95,-2.08740234375E-5,50,56,60,68265,16754981,9425,2262,1747,5013,4193,667,Tag0,unknown
1499246562894,0,-57,-1.2524414062500001E-5,50,56,60,68265,16754981,9425,2262,1747,5013,4193,667,Tag0,unknown
1499246562894,0,-28,-6.15234375E-6,50,56,60,68265,16754981,9425,2262,1747,5013,4193,667,Tag0,unknown
1499246562895,0,-53,-1.1645507812500002E-5,50,56,60,68265,16754981,9425,2262,1747,5013,4193,667,Tag0,unknown
1499246562895,0,-87,-1.91162109375E-5,50,56,60,68265,16754981,9425,2262,1747,5013,4193,667,Tag0,unknown
1499246562895,0,-102,-2.2412109374999998E-5,50,56,60,68265,16754981,9425,2262,1747,5013,4193,667,Tag0,unknown
1499246562895,0,-110,-2.4169921875E-5,50,56,60,68265,16754981,9425,2262,1747,5013,4193,667,Tag0,unknown
1499246562895,0,-119,-2.6147460937500004E-5,50,56,60,68265,16754981,9425,2262,1747,5013,4193,667,Tag0,unknown
1499246562895,0,-112,-2.4609375E-5,50,56,60,68265,16754981,9425,2262,1747,5013,4193,667,Tag0,unknown
1499246562896,0,-116,-2.548828125E-5,50,56,60,68265,16754981,9425,2262,1747,5013,4193,667,Tag0,unknown
1499246562896,0,122,2.6806640625E-5,50,56,60,68265,16754981,9425,2262,1747,5013,4193,667,Tag0,unknown
1499246562896,0,107,2.35107421875E-5,50,56,60,68265,16754981,9425,2262,1747,5013,4193,667,Tag0,unknown
1499246562896,0,114,2.5048828125000003E-5,50,56,60,68265,16754981,9425,2262,1747,5013,4193,667,Tag0,unknown
1499246562896,0,-124,-2.724609375E-5,50,56,60,68265,16754981,9425,2262,1747,5013,4193,667,Tag0,unknown
1499246562896,0,-112,-2.4609375E-5,50,56,60,68265,16754981,9425,2262,1747,5013,4193,667,Tag0,unknown
1499246562897,0,-124,-2.724609375E-5,50,56,60,68265,16754981,9425,2262,1747,5013,4193,667,Tag0,unknown
1499246562897,0,101,2.2192382812500002E-5,50,56,60,68265,16754981,9425,2262,1747,5013,4193,667,Tag0,unknown
1499246562897,0,100,2.197265625E-5,50,56,60,68265,16754981,9425,2262,1747,5013,4193,667,Tag0,unknown
1499246562897,0,-120,-2.63671875E-5,50,56,60,68265,16754981,9425,2262,1747,5013,4193,667,Tag0,unknown
1499246562897,0,-79,-1.7358398437500003E-5,50,56,60,68265,16754981,9425,2262,1747,5013,4193,667,Tag0,unknown
1499246562897,0,-52,-1.142578125E-5,50,56,60,68265,16754981,9425,2262,1747,5013,4193,667,Tag0,unknown
1499246562897,0,-48,-1.0546875E-5,50,56,60,68265,16754981,9425,2262,1747,5013,4193,667,Tag0,unknown
1499246562898,0,-77,-1.69189453125E-5,50,56,60,68265,16754981,9425,2262,1747,5013,4193,667,Tag0,unknown
1499246562898,0,-106,-2.3291015625000003E-5,50,56,60,68265,16754981,9425,2262,1747,5013,4193,667,Tag0,unknown
1499246562898,0,-120,-2.63671875E-5,50,56,60,68265,16754981,9425,2262,1747,5013,4193,667,Tag0,unknown
1499246562898,0,-99,-2.1752929687500003E-5,50,56,60,68265,16754981,9425,2262,1747,5013,4193,667,Tag0,unknown
1499246562898,0,-78,-1.7138671875E-5,50,56,60,68265,16754981,9425,2262,1747,5013,4193,667,Tag0,unknown
1499246562898,0,-94,-2.0654296875000002E-5,50,56,60,68265,16754981,9425,2262,1747,5013,4193,667,Tag0,unknown
1499246562899,0,-118,-2.5927734375E-5,50,56,60,68265,16754981,9425,2262,1747,5013,4193,667,Tag0,unknown
1499246562899,0,119,2.6147460937500004E-5,50,56,60,68265,16754981,9425,2262,1747,5013,4193,667,Tag0,unknown
1499246562899,0,84,1.8457031250000004E-5,50,56,60,68265,16754981,9425,2262,1747,5013,4193,667,Tag0,unknown
1499246562899,0,55,1.20849609375E-5,50,56,60,68265,16754981,9425,2262,1747,5013,4193,667,Tag0,unknown
1499246562899,0,65,1.42822265625E-5,50,56,60,68265,16754981,9425,2262,1747,5013,4193,667,Tag0,unknown
1499246562899,0,81,1.77978515625E-5,50,56,60,68265,16754981,9425,2262,1747,5013,4193,667,Tag0,unknown
1499246562899,0,84,1.8457031250000004E-5,50,56,60,68265,16754981,9425,2262,1747,5013,4193,667,Tag0,unknown
1499246562900,0,80,1.7578125E-5,50,56,60,68265,16754981,9425,2262,1747,5013,4193,667,Tag0,unknown
1499246562900,0,76,1.669921875E-5,50,56,60,68265,16754981,9425,2262,1747,5013,4193,667,Tag0,unknown
1499246562900,0,60,1.318359375E-5,50,56,60,68265,16754981,9425,2262,1747,5013,4193,667,Tag0,unknown
1499246562900,0,45,9.8876953125E-6,50,56,60,68265,16754981,9425,2262,1747,5013,4193,667,Tag0,unknown
1499246562900,0,52,1.142578125E-5,50,56,60,68265,16754981,9425,2262,1747,5013,4193,667,Tag0,unknown
1499246562900,0,57,1.2524414062500001E-5,50,56,60,68265,16754981,9425,2262,1747,5013,4193,667,Tag0,unknown
1499246562901,0,48,1.0546875E-5,50,56,60,68265,16754981,9425,2262,1747,5013,4193,667,Tag0,unknown
1499246562901,0,33,7.2509765625E-6,50,56,60,68265,16754981,9425,2262,1747,5013,4193,667,Tag0,unknown
1499246562901,0,41,9.008789062499999E-6,50,56,60,68265,16754981,9425,2262,1747,5013,4193,667,Tag0,unknown
1499246562901,0,66,1.4501953125E-5,50,56,60,68265,16754981,9425,2262,1747,5013,4193,667,Tag0,unknown
1499246562901,0,80,1.7578125E-5,50,56,60,68265,16754981,9425,2262,1747,5013,4193,667,Tag0,unknown
1499246562901,0,70,1.5380859375E-5,50,56,60,68265,16754981,9425,2262,1747,5013,4193,667,Tag0,unknown
1499246562901,0,68,1.4941406250000001E-5,50,56,60,68265,16754981,9425,2262,1747,5013,4193,667,Tag0,unknown
1499246562902,0,89,1.95556640625E-5,50,56,60,68265,16754981,9425,2262,1747,5013,4193,667,Tag0,unknown
1499246562902,0,-126,-2.7685546875E-5,50,56,60,68265,16754981,9425,2262,1747,5013,4193,667,Tag0,unknown
1499246562902,0,-96,-2.109375E-5,50,56,60,68265,16754981,9425,2262,1747,5013,4193,667,Tag0,unknown
1499246562902,0,-90,-1.9775390625E-5,50,56,60,68265,16754981,9425,2262,1747,5013,4193,667,Tag0,unknown
1499246562902,0,-103,-2.26318359375E-5,50,56,60,68265,16754981,9425,2262,1747,5013,4193,667,Tag0,unknown
1499246562902,0,122,2.6806640625E-5,50,56,60,68265,16754981,9425,2262,1747,5013,4193,667,Tag0,unknown
1499246562903,0,96,2.109375E-5,50,56,60,68265,16754981,9425,2262,1747,5013,4193,667,Tag0,unknown
1499246562903,0,76,1.669921875E-5,50,56,60,68265,16754981,9425,2262,1747,5013,4193,667,Tag0,unknown
1499246562903,0,66,1.4501953125E-5,50,56,60,68265,16754981,9425,2262,1747,5013,4193,667,Tag0,unknown
1499246562903,0,65,1.42822265625E-5,50,56,60,68265,16754981,9425,2262,1747,5013,4193,667,Tag0,unknown
1499246562903,0,98,2.1533203125E-5,50,56,60,68265,16754981,9425,2262,1747,5013,4193,667,Tag0,unknown
1499246562903,0,-112,-2.4609375E-5,50,56,60,68265,16754981,9425,2262,1747,5013,4193,667,Tag0,unknown
1499246562903,0,-80,-1.7578125E-5,50,56,60,68265,16754981,9425,2262,1747,5013,4193,667,Tag0,unknown
1499246562904,0,-80,-1.7578125E-5,50,56,60,68265,16754981,9425,2262,1747,5013,4193,667,Tag0,unknown
1499246562904,0,-78,-1.7138671875E-5,50,56,60,68265,16754981,9425,2262,1747,5013,4193,667,Tag0,unknown
1499246562904,0,-52,-1.142578125E-5,50,56,60,68265,16754981,9425,2262,1747,5013,4193,667,Tag0,unknown
1499246562904,0,259,5.69091796875E-5,50,56,60,68265,16754981,9425,2262,1747,5013,4193,667,Tag0,unknown
1499246562904,0,320,7.03125E-5,50,56,60,68265,16754981,9425,2262,1747,5013,4193,667,Tag0,unknown
1499246562904,0,346,7.6025390625E-5,50,56,60,68265,16754981,9425,2262,1747,5013,4193,667,Tag0,unknown
1499246562905,0,360,7.91015625E-5,50,56,60,68265,16754981,9425,2262,1747,5013,4193,667,Tag0,unknown
1499246562905,0,361,7.93212890625E-5,50,56,60,68265,16754981,9425,2262,1747,5013,4193,667,Tag0,unknown
1499246562905,0,348,7.646484375E-5,50,56,60,68265,16754981,9425,2262,1747,5013,4193,667,Tag0,unknown
1499246562905,0,342,7.5146484375E-5,50,56,60,68265,16754981,9425,2262,1747,5013,4193,667,Tag0,unknown
1499246562905,0,354,7.778320312500001E-5,50,56,60,68265,16754981,9425,2262,1747,5013,4193,667,Tag0,unknown
1499246562905,0,364,7.998046875E-5,50,56,60,68265,16754981,9425,2262,1747,5013,4193,667,Tag0,unknown
1499246562906,0,371,8.151855468750001E-5,50,56,60,68265,16754981,9425,2262,1747,5013,4193,667,Tag0,unknown
1499246562925,0,373,8.19580078125E-5,50,56,60,68265,16754981,9425,2262,1747,5013,4193,667,Tag0,unknown
1499246562925,0,361,7.93212890625E-5,50,56,60,68265,16754981,9425,2262,1747,5013,4193,667,Tag0,unknown
1499246562934,0,377,8.28369140625E-5,50,56,60,68265,16754981,9425,2262,1747,5013,4193,667,Tag0,unknown
1499246562935,0,167,3.6694335937500004E-5,50,56,60,68265,16754981,9425,2262,1747,5013,4193,667,Tag0,unknown
1499246562935,0,187,4.10888671875E-5,50,56,60,68265,16754981,9425,2262,1747,5013,4193,667,Tag0,unknown
1499246562935,0,161,3.53759765625E-5,50,56,60,68265,16754981,9425,2262,1747,5013,4193,667,Tag0,unknown
1499246562935,0,380,8.349609375E-5,50,56,60,68265,16754981,9425,2262,1747,5013,4193,667,Tag0,unknown
1499246562936,0,341,7.492675781250002E-5,50,56,60,68265,16754981,9425,2262,1747,5013,4193,667,Tag0,unknown
1499246562936,0,288,6.328125E-5,50,56,60,68265,16754981,9425,2262,1747,5013,4193,667,Tag0,unknown
1499246562936,0,-15,-3.2958984375E-6,50,56,60,68265,16754981,9425,2262,1747,5013,4193,667,Tag0,unknown
1499246562936,0,-30,-6.591796875E-6,50,56,60,68265,16754981,9425,2262,1747,5013,4193,667,Tag0,unknown
1499246562936,0,-41,-9.008789062499999E-6,50,56,60,68265,16754981,9425,2262,1747,5013,4193,667,Tag0,unknown
1499246562936,0,-55,-1.20849609375E-5,50,56,60,68265,16754981,9425,2262,1747,5013,4193,667,Tag0,unknown
1499246562937,0,-55,-1.20849609375E-5,50,56,60,68265,16754981,9425,2262,1747,5013,4193,667,Tag0,unknown
1499246562937,0,-29,-6.3720703125E-6,50,56,60,68265,16754981,9425,2262,1747,5013,4193,667,Tag0,unknown
1499246562949,0,257,5.64697265625E-5,50,56,60,68265,16754981,9425,2262,1747,5013,4193,667,Tag0,unknown
1499246562949,0,258,5.6689453125000004E-5,50,56,60,68265,16754981,9425,2262,1747,5013,4193,667,Tag0,unknown
1499246562949,0,-13,-2.8564453125E-6,50,56,60,68265,16754981,9425,2262,1747,5013,4193,667,Tag0,unknown
1499246562950,0,-13,-2.8564453125E-6,50,56,60,68265,16754981,9425,2262,1747,5013,4193,667,Tag0,unknown
1499246562950,0,261,5.73486328125E-5,50,56,60,68265,16754981,9425,2262,1747,5013,4193,667,Tag0,unknown
1499246562950,0,285,6.26220703125E-5,50,56,60,68265,16754981,9425,2262,1747,5013,4193,667,Tag0,unknown
1499246562950,0,276,6.064453125E-5,50,56,60,68265,16754981,9425,2262,1747,5013,4193,667,Tag0,unknown
1499246562950,0,-27,-5.9326171875000005E-6,50,56,60,68265,16754981,9425,2262,1747,5013,4193,667,Tag0,unknown
1499246562950,0,-48,-1.0546875E-5,50,56,60,68265,16754981,9425,2262,1747,5013,4193,667,Tag0,unknown
1499246562951,0,-37,-8.1298828125E-6,50,56,60,68265,16754981,9425,2262,1747,5013,4193,667,Tag0,unknown
1499246562951,0,-38,-8.349609375E-6,50,56,60,68265,16754981,9425,2262,1747,5013,4193,667,Tag0,unknown
1499246562951,0,-61,-1.34033203125E-5,50,56,60,68265,16754981,9425,2262,1747,5013,4193,667,Tag0,unknown
1499246562951,0,-86,-1.8896484375000003E-5,50,56,60,68265,16754981,9425,2262,1747,5013,4193,667,Tag0,unknown
1499246562951,0,-104,-2.28515625E-5,50,56,60,68265,16754981,9425,2262,1747,5013,4193,667,Tag0,unknown
1499246562951,0,-102,-2.2412109374999998E-5,50,56,60,68265,16754981,9425,2262,1747,5013,4193,667,Tag0,unknown
1499246562952,0,-79,-1.7358398437500003E-5,50,56,60,68265,16754981,9425,2262,1747,5013,4193,667,Tag0,unknown
1499246562952,0,-75,-1.64794921875E-5,50,56,60,68265,16754981,9425,2262,1747,5013,4193,667,Tag0,unknown
1499246563168,0,-119,-2.6147460937500004E-5,50,56,60,68265,16754981,9425,2262,1747,5013,4193,667,Tag0,unknown
1499246563168,0,89,1.95556640625E-5,50,56,60,68265,16754981,9425,2262,1747,5013,4193,667,Tag0,unknown
1499246563169,0,70,1.5380859375E-5,50,56,60,68265,16754981,9425,2262,1747,5013,4193,667,Tag0,unknown
1499246563169,0,50,1.0986328125E-5,50,56,60,68265,16754981,9425,2262,1747,5013,4193,667,Tag0,unknown
1499246563169,0,19,4.1748046875E-6,50,56,60,68265,16754981,9425,2262,1747,5013,4193,667,Tag0,unknown
1499246563170,0,1,2.197265625E-7,50,56,60,68265,16754981,9425,2262,1747,5013,4193,667,Tag0,unknown
1499246563170,0,13,2.8564453125E-6,50,56,60,68265,16754981,9425,2262,1747,5013,4193,667,Tag0,unknown
1499246563170,0,37,8.1298828125E-6,50,56,60,68265,16754981,9425,2262,1747,5013,4193,667,Tag0,unknown
1499246563170,0,39,8.5693359375E-6,50,56,60,68265,16754981,9425,2262,1747,5013,4193,667,Tag0,unknown
1499246563171,0,16,3.515625E-6,50,56,60,68265,16754981,9425,2262,1747,5013,4193,667,Tag0,unknown
1499246563171,0,-268,-5.8886718750000006E-5,50,56,60,68265,16754981,9425,2262,1747,5013,4193,667,Tag0,unknown
1499246563171,0,-286,-6.2841796875E-5,50,56,60,68265,16754981,9425,2262,1747,5013,4193,667,Tag0,unknown
1499246563172,0,-294,-6.4599609375E-5,50,56,60,68265,16754981,9425,2262,1747,5013,4193,667,Tag0,unknown
1499246563172,0,-300,-6.591796875E-5,50,56,60,68265,16754981,9425,2262,1747,5013,4193,667,Tag0,unknown
1499246563172,0,-317,-6.96533203125E-5,50,56,60,68265,16754981,9425,2262,1747,5013,4193,667,Tag0,unknown
1499246563172,0,-340,-7.470703125E-5,50,56,60,68265,16754981,9425,2262,1747,5013,4193,667,Tag0,unknown
1499246563173,0,-355,-7.80029296875E-5,50,56,60,68265,16754981,9425,2262,1747,5013,4193,667,Tag0,unknown
1499246563173,0,-361,-7.93212890625E-5,50,56,60,68265,16754981,9425,2262,1747,5013,4193,667,Tag0,unknown
1499246563173,0,-350,-7.6904296875E-5,50,56,60,68265,16754981,9425,2262,1747,5013,4193,667,Tag0,unknown
1499246563174,0,-357,-7.844238281250001E-5,50,56,60,68265,16754981,9425,2262,1747,5013,4193,667,Tag0,unknown
1499246563174,0,-146,-3.2080078125000004E-5,50,56,60,68265,16754981,9425,2262,1747,5013,4193,667,Tag0,unknown
1499246563174,0,-193,-4.2407226562500005E-5,50,56,60,68265,16754981,9425,2262,1747,5013,4193,667,Tag0,unknown
1499246563175,0,-199,-4.3725585937499995E-5,50,56,60,68265,16754981,9425,2262,1747,5013,4193,667,Tag0,unknown
1499246563175,0,-182,-3.9990234375E-5,50,56,60,68265,16754981,9425,2262,1747,5013,4193,667,Tag0,unknown
1499246563175,0,-167,-3.6694335937500004E-5,50,56,60,68265,16754981,9425,2262,1747,5013,4193,667,Tag0,unknown
1499246563176,0,-164,-3.6035156249999995E-5,50,56,60,68265,16754981,9425,2262,1747,5013,4193,667,Tag0,unknown
1499246563176,0,-173,-3.80126953125E-5,50,56,60,68265,16754981,9425,2262,1747,5013,4193,667,Tag0,unknown
1499246563177,0,-213,-4.68017578125E-5,50,56,60,68265,16754981,9425,2262,1747,5013,4193,667,Tag0,unknown
1499246563177,0,-216,-4.7460937500000004E-5,50,56,60,68265,16754981,9425,2262,1747,5013,4193,667,Tag0,unknown
1499246563177,0,-181,-3.9770507812500004E-5,50,56,60,68265,16754981,9425,2262,1747,5013,4193,667,Tag0,unknown
1499246563178,0,-140,-3.076171875E-5,50,56,60,68265,16754981,9425,2262,1747,5013,4193,667,Tag0,unknown
1499246563178,0,-377,-8.28369140625E-5,50,56,60,68265,16754981,9425,2262,1747,5013,4193,667,Tag0,unknown
1499246563178,0,-380,-8.349609375E-5,50,56,60,68265,16754981,9425,2262,1747,5013,4193,667,Tag0,unknown
1499246563179,0,-139,-3.0541992187500004E-5,50,56,60,68265,16754981,9425,2262,1747,5013,4193,667,Tag0,unknown
1499246563179,0,-132,-2.900390625E-5,50,56,60,68265,16754981,9425,2262,1747,5013,4193,667,Tag0,unknown
1499246563179,0,-348,-7.646484375E-5,50,56,60,68265,16754981,9425,2262,1747,5013,4193,667,Tag0,unknown
1499246563179,0,-315,-6.92138671875E-5,50,56,60,68265,16754981,9425,2262,1747,5013,4193,667,Tag0,unknown
1499246563180,0,-286,-6.2841796875E-5,50,56,60,68265,16754981,9425,2262,1747,5013,4193,667,Tag0,unknown
1499246563180,0,-269,-5.9106445312499996E-5,50,56,60,68265,16754981,9425,2262,1747,5013,4193,667,Tag0,unknown
1499246563180,0,-280,-6.15234375E-5,50,56,60,68265,16754981,9425,2262,1747,5013,4193,667,Tag0,unknown
1499246563181,0,-312,-6.85546875E-5,50,56,60,68265,16754981,9425,2262,1747,5013,4193,667,Tag0,unknown
1499246563181,0,-316,-6.943359375000001E-5,50,56,60,68265,16754981,9425,2262,1747,5013,4193,667,Tag0,unknown
1499246563181,0,-291,-6.39404296875E-5,50,56,60,68265,16754981,9425,2262,1747,5013,4193,667,Tag0,unknown
1499246563181,0,-282,-6.1962890625E-5,50,56,60,68265,16754981,9425,2262,1747,5013,4193,667,Tag0,unknown
1499246563182,0,-300,-6.591796875E-5,50,56,60,68265,16754981,9425,2262,1747,5013,4193,667,Tag0,unknown
1499246563182,0,-312,-6.85546875E-5,50,56,60,68265,16754981,9425,2262,1747,5013,4193,667,Tag0,unknown
1499246563182,0,-309,-6.78955078125E-5,50,56,60,68265,16754981,9425,2262,1747,5013,4193,667,Tag0,unknown
1499246563182,0,-305,-6.70166015625E-5,50,56,60,68265,16754981,9425,2262,1747,5013,4193,667,Tag0,unknown
1499246563286,0,-301,-6.613769531250001E-5,50,56,60,68265,16754981,9425,2262,1747,5013,4193,667,Tag0,unknown
1499246563287,0,-296,-6.50390625E-5,50,56,60,68265,16754981,9425,2262,1747,5013,4193,667,Tag0,unknown
1499246563288,0,-292,-6.416015625000001E-5,50,56,60,68265,16754981,9425,2262,1747,5013,4193,667,Tag0,unknown
1499246563289,0,-311,-6.833496093750001E-5,50,56,60,68265,16754981,9425,2262,1747,5013,4193,667,Tag0,unknown
1499246563289,0,-333,-7.316894531249999E-5,50,56,60,68265,16754981,9425,2262,1747,5013,4193,667,Tag0,unknown
1499246563290,0,-307,-6.74560546875E-5,50,56,60,68265,16754981,9425,2262,1747,5013,4193,667,Tag0,unknown
1499246563290,0,1,2.197265625E-7,50,56,60,68265,16754981,9425,2262,1747,5013,4193,667,Tag0,unknown
1499246563291,0,24,5.2734375E-6,50,56,60,68265,16754981,9425,2262,1747,5013,4193,667,Tag0,unknown
1499246563291,0,21,4.614257812500001E-6,50,56,60,68265,16754981,9425,2262,1747,5013,4193,667,Tag0,unknown
1499246563292,0,32,7.03125E-6,50,56,60,68265,16754981,9425,2262,1747,5013,4193,667,Tag0,unknown
1499246563296,0,55,1.20849609375E-5,50,56,47,68265,16754981,9425,2262,1747,5013,4193,667,Tag0,unknown
1499246563297,0,72,1.58203125E-5,50,56,47,68265,16754981,9425,2262,1747,5013,4193,667,Tag0,unknown
1499246563297,0,69,1.51611328125E-5,50,56,47,68265,16754981,9425,2262,1747,5013,4193,667,Tag0,unknown
1499246563298,0,75,1.64794921875E-5,50,56,47,68265,16754981,9425,2262,1747,5013,4193,667,Tag0,unknown
1499246563298,0,96,2.109375E-5,50,56,47,68265,16754981,9425,2262,1747,5013,4193,667,Tag0,unknown
1499246563299,0,105,2.30712890625E-5,50,56,47,68265,16754981,9425,2262,1747,5013,4193,667,Tag0,unknown
1499246563299,0,96,2.109375E-5,50,56,47,68265,16754981,9425,2262,1747,5013,4193,667,Tag0,unknown
1499246563299,0,56,1.23046875E-5,50,56,47,68265,16754981,9425,2262,1747,5013,4193,667,Tag0,unknown
1499246563300,0,11,2.4169921875E-6,50,56,47,68265,16754981,9425,2262,1747,5013,4193,667,Tag0,unknown
1499246563300,0,-267,-5.86669921875E-5,50,56,47,68265,16754981,9425,2262,1747,5013,4193,667,Tag0,unknown
1499246563301,0,-280,-6.15234375E-5,50,56,47,68265,16754981,9425,2262,1747,5013,4193,667,Tag0,unknown
1499246563301,0,-290,-6.3720703125E-5,50,56,47,68265,16754981,9425,2262,1747,5013,4193,667,Tag0,unknown
1499246563302,0,-291,-6.39404296875E-5,50,56,47,68265,16754981,9425,2262,1747,5013,4193,667,Tag0,unknown
1499246563302,0,-300,-6.591796875E-5,50,56,47,68265,16754981,9425,2262,1747,5013,4193,667,Tag0,unknown
1499246563303,0,-314,-6.8994140625E-5,50,56,47,68265,16754981,9425,2262,1747,5013,4193,667,Tag0,unknown
1499246563303,0,-316,-6.943359375000001E-5,50,56,47,68265,16754981,9425,2262,1747,5013,4193,667,Tag0,unknown
1499246563304,0,-314,-6.8994140625E-5,50,56,47,68265,16754981,9425,2262,1747,5013,4193,667,Tag0,unknown
1499246563304,0,-308,-6.767578125E-5,50,56,47,68265,16754981,9425,2262,1747,5013,4193,667,Tag0,unknown
1499246563305,0,-275,-6.04248046875E-5,50,56,47,68265,16754981,9425,2262,1747,5013,4193,667,Tag0,unknown
1499246563305,0,11,2.4169921875E-6,50,56,47,68265,16754981,9425,2262,1747,5013,4193,667,Tag0,unknown
1499246563306,0,9,1.9775390625E-6,50,56,47,68265,16754981,9425,2262,1747,5013,4193,667,Tag0,unknown
1499246563307,0,-263,-5.7788085937500005E-5,50,56,47,68265,16754981,9425,2262,1747,5013,4193,667,Tag0,unknown
1499246563307,0,-269,-5.9106445312499996E-5,50,56,47,68265,16754981,9425,2262,1747,5013,4193,667,Tag0,unknown
1499246563307,0,-280,-6.15234375E-5,50,56,47,68265,16754981,9425,2262,1747,5013,4193,667,Tag0,unknown
1499246563308,0,-291,-6.39404296875E-5,50,56,47,68265,16754981,9425,2262,1747,5013,4193,667,Tag0,unknown
1499246563318,0,-280,-6.15234375E-5,50,56,47,68265,16754981,9425,2262,1747,5013,4193,667,Tag0,unknown
1499246563318,0,-259,-5.69091796875E-5,50,56,47,68265,16754981,9425,2262,1747,5013,4193,667,Tag0,unknown
1499246563319,0,-260,-5.712890625E-5,50,56,47,68265,16754981,9425,2262,1747,5013,4193,667,Tag0,unknown
1499246563319,0,-269,-5.9106445312499996E-5,50,56,47,68265,16754981,9425,2262,1747,5013,4193,667,Tag0,unknown
1499246563319,0,-277,-6.0864257812500005E-5,50,56,47,68265,16754981,9425,2262,1747,5013,4193,667,Tag0,unknown
1499246563320,0,-276,-6.064453125E-5,50,56,47,68265,16754981,9425,2262,1747,5013,4193,667,Tag0,unknown
1499246563320,0,-274,-6.0205078124999997E-5,50,56,47,68265,16754981,9425,2262,1747,5013,4193,667,Tag0,unknown
1499246563321,0,-275,-6.04248046875E-5,50,56,47,68265,16754981,9425,2262,1747,5013,4193,667,Tag0,unknown
1499246563321,0,1,2.197265625E-7,50,56,47,68265,16754981,9425,2262,1747,5013,4193,667,Tag0,unknown
1499246563321,0,18,3.955078125E-6,50,56,47,68265,16754981,9425,2262,1747,5013,4193,667,Tag0,unknown
1499246563321,0,4,8.7890625E-7,50,56,47,68265,16754981,9425,2262,1747,5013,4193,667,Tag0,unknown
1499246563322,0,-277,-6.0864257812500005E-5,50,56,47,68265,16754981,9425,2262,1747,5013,4193,667,Tag0,unknown
1499246563364,0,-285,-6.26220703125E-5,50,56,47,68265,16754981,9425,2262,1747,5013,4193,667,Tag0,unknown
1499246563387,0,-273,-5.998535156250001E-5,50,56,47,68265,16754981,9425,2262,1747,5013,4193,667,Tag0,unknown
1499246563388,0,16,3.515625E-6,50,56,47,68265,16754981,9425,2262,1747,5013,4193,667,Tag0,unknown
1499246563389,0,44,9.66796875E-6,50,56,47,68265,16754981,9425,2262,1747,5013,4193,667,Tag0,unknown
1499246563389,0,48,1.0546875E-5,50,56,47,68265,16754981,9425,2262,1747,5013,4193,667,Tag0,unknown
