timestampMs,poorSignal,eegRawValue,eegRawValueVolts,attention,meditation,blinkStrength,delta,theta,alphaLow,alphaHigh,betaLow,betaHigh,gammaLow,gammaMid,tagEvent,location
1499247934140,0,23,5.0537109375E-6,50,53,36,350570,66342,23733,9424,11872,8390,4320,3320,Tag0,unknown
1499247934141,0,25,5.4931640625E-6,50,53,36,350570,66342,23733,9424,11872,8390,4320,3320,Tag0,unknown
1499247934141,0,27,5.9326171875000005E-6,50,53,36,350570,66342,23733,9424,11872,8390,4320,3320,Tag0,unknown
1499247934141,0,24,5.2734375E-6,50,53,36,350570,66342,23733,9424,11872,8390,4320,3320,Tag0,unknown
1499247934141,0,12,2.63671875E-6,50,53,36,350570,66342,23733,9424,11872,8390,4320,3320,Tag0,unknown
1499247934141,0,5,1.0986328125E-6,50,53,36,350570,66342,23733,9424,11872,8390,4320,3320,Tag0,unknown
1499247934141,0,4,8.7890625E-7,50,53,36,350570,66342,23733,9424,11872,8390,4320,3320,Tag0,unknown
1499247934142,0,-264,-5.80078125E-5,50,53,36,350570,66342,23733,9424,11872,8390,4320,3320,Tag0,unknown
1499247934142,0,-289,-6.35009765625E-5,50,53,36,350570,66342,23733,9424,11872,8390,4320,3320,Tag0,unknown
1499247934142,0,-312,-6.85546875E-5,50,53,36,350570,66342,23733,9424,11872,8390,4320,3320,Tag0,unknown
1499247934142,0,-313,-6.87744140625E-5,50,53,36,350570,66342,23733,9424,11872,8390,4320,3320,Tag0,unknown
1499247934142,0,-285,-6.26220703125E-5,50,53,36,350570,66342,23733,9424,11872,8390,4320,3320,Tag0,unknown
1499247934142,0,-267,-5.86669921875E-5,50,53,36,350570,66342,23733,9424,11872,8390,4320,3320,Tag0,unknown
1499247934143,0,-263,-5.7788085937500005E-5,50,53,36,350570,66342,23733,9424,11872,8390,4320,3320,Tag0,unknown
1499247934153,0,33,7.2509765625E-6,44,61,36,898380,16767704,19913,8885,7180,9388,3600,2214,Tag0,unknown
1499247934154,0,76,1.669921875E-5,44,61,36,898380,16767704,19913,8885,7180,9388,3600,2214,Tag0,unknown
1499247934154,0,76,1.669921875E-5,44,61,36,898380,16767704,19913,8885,7180,9388,3600,2214,Tag0,unknown
1499247934154,0,64,1.40625E-5,44,61,36,898380,16767704,19913,8885,7180,9388,3600,2214,Tag0,unknown
1499247934154,0,50,1.0986328125E-5,44,61,36,898380,16767704,19913,8885,7180,9388,3600,2214,Tag0,unknown
1499247934154,0,49,1.07666015625E-5,44,61,36,898380,16767704,19913,8885,7180,9388,3600,2214,Tag0,unknown
1499247934154,0,65,1.42822265625E-5,44,61,36,898380,16767704,19913,8885,7180,9388,3600,2214,Tag0,unknown
1499247934154,0,65,1.42822265625E-5,44,61,36,898380,16767704,19913,8885,7180,9388,3600,2214,Tag0,unknown
1499247934155,0,21,4.614257812500001E-6,44,61,36,898380,16767704,19913,8885,7180,9388,3600,2214,Tag0,unknown
1499247934155,0,21,4.614257812500001E-6,44,61,36,898380,16767704,19913,8885,7180,9388,3600,2214,Tag0,unknown
1499247934155,0,60,1.318359375E-5,44,61,36,898380,16767704,19913,8885,7180,9388,3600,2214,Tag0,unknown
1499247934155,0,67,1.4721679687500002E-5,44,61,36,898380,16767704,19913,8885,7180,9388,3600,2214,Tag0,unknown
1499247934155,0,66,1.4501953125E-5,44,61,36,898380,16767704,19913,8885,7180,9388,3600,2214,Tag0,unknown
1499247934155,0,82,1.8017578124999998E-5,44,61,36,898380,16767704,19913,8885,7180,9388,3600,2214,Tag0,unknown
1499247934155,0,88,1.93359375E-5,44,61,36,898380,16767704,19913,8885,7180,9388,3600,2214,Tag0,unknown
1499247934156,0,86,1.8896484375000003E-5,44,61,36,898380,16767704,19913,8885,7180,9388,3600,2214,Tag0,unknown
1499247934156,0,83,1.82373046875E-5,44,61,36,898380,16767704,19913,8885,7180,9388,3600,2214,Tag0,unknown
1499247934156,0,100,2.197265625E-5,44,61,36,898380,16767704,19913,8885,7180,9388,3600,2214,Tag0,unknown
1499247934156,0,-109,-2.39501953125E-5,44,61,36,898380,16767704,19913,8885,7180,9388,3600,2214,Tag0,unknown
1499247934156,0,-78,-1.7138671875E-5,44,61,36,898380,16767704,19913,8885,7180,9388,3600,2214,Tag0,unknown
1499247934156,0,-96,-2.109375E-5,44,61,36,898380,16767704,19913,8885,7180,9388,3600,2214,Tag0,unknown
1499247934156,0,104,2.28515625E-5,44,61,36,898380,16767704,19913,8885,7180,9388,3600,2214,Tag0,unknown
1499247934157,0,54,1.1865234375000001E-5,44,61,36,898380,16767704,19913,8885,7180,9388,3600,2214,Tag0,unknown
1499247934157,0,19,4.1748046875E-6,44,61,36,898380,16767704,19913,8885,7180,9388,3600,2214,Tag0,unknown
1499247934157,0,3,6.591796875E-7,44,61,36,898380,16767704,19913,8885,7180,9388,3600,2214,Tag0,unknown
1499247934157,0,-258,-5.6689453125000004E-5,44,61,36,898380,16767704,19913,8885,7180,9388,3600,2214,Tag0,unknown
1499247934157,0,-258,-5.6689453125000004E-5,44,61,36,898380,16767704,19913,8885,7180,9388,3600,2214,Tag0,unknown
1499247934157,0,-263,-5.7788085937500005E-5,44,61,36,898380,16767704,19913,8885,7180,9388,3600,2214,Tag0,unknown
1499247934157,0,-266,-5.8447265625E-5,44,61,36,898380,16767704,19913,8885,7180,9388,3600,2214,Tag0,unknown
1499247934158,0,-263,-5.7788085937500005E-5,44,61,36,898380,16767704,19913,8885,7180,9388,3600,2214,Tag0,unknown
1499247934158,0,0,0.0,44,61,36,898380,16767704,19913,8885,7180,9388,3600,2214,Tag0,unknown
1499247934158,0,-258,-5.6689453125000004E-5,44,61,36,898380,16767704,19913,8885,7180,9388,3600,2214,Tag0,unknown
1499247934158,0,22,4.833984375E-6,44,61,36,898380,16767704,19913,8885,7180,9388,3600,2214,Tag0,unknown
1499247934158,0,52,1.142578125E-5,44,61,36,898380,16767704,19913,8885,7180,9388,3600,2214,Tag0,unknown
1499247934158,0,66,1.4501953125E-5,44,61,36,898380,16767704,19913,8885,7180,9388,3600,2214,Tag0,unknown
1499247934158,0,72,1.58203125E-5,44,61,36,898380,16767704,19913,8885,7180,9388,3600,2214,Tag0,unknown
1499247934158,0,70,1.5380859375E-5,44,61,36,898380,16767704,19913,8885,7180,9388,3600,2214,Tag0,unknown
1499247934159,0,66,1.4501953125E-5,44,61,36,898380,16767704,19913,8885,7180,9388,3600,2214,Tag0,unknown
1499247934159,0,81,1.77978515625E-5,44,61,36,898380,16767704,19913,8885,7180,9388,3600,2214,Tag0,unknown
1499247934159,0,103,2.26318359375E-5,44,61,36,898380,16767704,19913,8885,7180,9388,3600,2214,Tag0,unknown
1499247934159,0,-120,-2.63671875E-5,44,61,36,898380,16767704,19913,8885,7180,9388,3600,2214,Tag0,unknown
1499247934159,0,116,2.548828125E-5,44,61,36,898380,16767704,19913,8885,7180,9388,3600,2214,Tag0,unknown
1499247934159,0,34,7.4707031250000005E-6,44,61,36,898380,16767704,19913,8885,7180,9388,3600,2214,Tag0,unknown
1499247934159,0,-291,-6.39404296875E-5,44,61,36,898380,16767704,19913,8885,7180,9388,3600,2214,Tag0,unknown
1499247934160,0,-322,-7.0751953125E-5,44,61,36,898380,16767704,19913,8885,7180,9388,3600,2214,Tag0,unknown
1499247934160,0,-313,-6.87744140625E-5,44,61,36,898380,16767704,19913,8885,7180,9388,3600,2214,Tag0,unknown
1499247934160,0,-296,-6.50390625E-5,44,61,36,898380,16767704,19913,8885,7180,9388,3600,2214,Tag0,unknown
1499247934160,0,-282,-6.1962890625E-5,44,61,36,898380,16767704,19913,8885,7180,9388,3600,2214,Tag0,unknown
1499247934160,0,-263,-5.7788085937500005E-5,44,61,36,898380,16767704,19913,8885,7180,9388,3600,2214,Tag0,unknown
1499247934160,0,-280,-6.15234375E-5,44,61,36,898380,16767704,19913,8885,7180,9388,3600,2214,Tag0,unknown
1499247934160,0,-298,-6.5478515625E-5,44,61,36,898380,16767704,19913,8885,7180,9388,3600,2214,Tag0,unknown
1499247934160,0,-283,-6.218261718750001E-5,44,61,36,898380,16767704,19913,8885,7180,9388,3600,2214,Tag0,unknown
1499247934161,0,-261,-5.73486328125E-5,44,61,36,898380,16767704,19913,8885,7180,9388,3600,2214,Tag0,unknown
1499247934161,0,6,1.318359375E-6,44,61,36,898380,16767704,19913,8885,7180,9388,3600,2214,Tag0,unknown
1499247934161,0,27,5.9326171875000005E-6,44,61,36,898380,16767704,19913,8885,7180,9388,3600,2214,Tag0,unknown
1499247934161,0,53,1.1645507812500002E-5,44,61,36,898380,16767704,19913,8885,7180,9388,3600,2214,Tag0,unknown
1499247934161,0,55,1.20849609375E-5,44,61,36,898380,16767704,19913,8885,7180,9388,3600,2214,Tag0,unknown
1499247934161,0,41,9.008789062499999E-6,44,61,36,898380,16767704,19913,8885,7180,9388,3600,2214,Tag0,unknown
1499247934161,0,-257,-5.64697265625E-5,44,61,36,898380,16767704,19913,8885,7180,9388,3600,2214,Tag0,unknown
1499247934161,0,-276,-6.064453125E-5,44,61,36,898380,16767704,19913,8885,7180,9388,3600,2214,Tag0,unknown
1499247934162,0,9,1.9775390625E-6,44,61,36,898380,16767704,19913,8885,7180,9388,3600,2214,Tag0,unknown
1499247934162,0,56,1.23046875E-5,44,61,36,898380,16767704,19913,8885,7180,9388,3600,2214,Tag0,unknown
1499247934162,0,72,1.58203125E-5,44,61,36,898380,16767704,19913,8885,7180,9388,3600,2214,Tag0,unknown
1499247934162,0,41,9.008789062499999E-6,44,61,36,898380,16767704,19913,8885,7180,9388,3600,2214,Tag0,unknown
1499247934162,0,9,1.9775390625E-6,44,61,36,898380,16767704,19913,8885,7180,9388,3600,2214,Tag0,unknown
1499247934162,0,2,4.39453125E-7,44,61,36,898380,16767704,19913,8885,7180,9388,3600,2214,Tag0,unknown
1499247934163,0,1,2.197265625E-7,44,61,36,898380,16767704,19913,8885,7180,9388,3600,2214,Tag0,unknown
1499247934163,0,12,2.63671875E-6,44,61,36,898380,16767704,19913,8885,7180,9388,3600,2214,Tag0,unknown
1499247934163,0,27,5.9326171875000005E-6,44,61,36,898380,16767704,19913,8885,7180,9388,3600,2214,Tag0,unknown
1499247934163,0,41,9.008789062499999E-6,44,61,36,898380,16767704,19913,8885,7180,9388,3600,2214,Tag0,unknown
1499247934163,0,73,1.6040039062500002E-5,44,61,36,898380,16767704,19913,8885,7180,9388,3600,2214,Tag0,unknown
1499247934163,0,83,1.82373046875E-5,44,61,36,898380,16767704,19913,8885,7180,9388,3600,2214,Tag0,unknown
1499247934163,0,75,1.64794921875E-5,44,61,36,898380,16767704,19913,8885,7180,9388,3600,2214,Tag0,unknown
1499247934163,0,80,1.7578125E-5,44,61,36,898380,16767704,19913,8885,7180,9388,3600,2214,Tag0,unknown
1499247934164,0,56,1.23046875E-5,44,61,36,898380,16767704,19913,8885,7180,9388,3600,2214,Tag0,unknown
1499247934164,0,22,4.833984375E-6,44,61,36,898380,16767704,19913,8885,7180,9388,3600,2214,Tag0,unknown
1499247934164,0,9,1.9775390625E-6,44,61,36,898380,16767704,19913,8885,7180,9388,3600,2214,Tag0,unknown
1499247934164,0,21,4.614257812500001E-6,44,61,36,898380,16767704,19913,8885,7180,9388,3600,2214,Tag0,unknown
1499247934164,0,64,1.40625E-5,44,61,36,898380,16767704,19913,8885,7180,9388,3600,2214,Tag0,unknown
1499247934164,0,105,2.30712890625E-5,44,61,36,898380,16767704,19913,8885,7180,9388,3600,2214,Tag0,unknown
1499247934164,0,-116,-2.548828125E-5,44,61,36,898380,16767704,19913,8885,7180,9388,3600,2214,Tag0,unknown
1499247934164,0,-108,-2.3730468750000002E-5,44,61,36,898380,16767704,19913,8885,7180,9388,3600,2214,Tag0,unknown
1499247934165,0,-125,-2.74658203125E-5,44,61,36,898380,16767704,19913,8885,7180,9388,3600,2214,Tag0,unknown
1499247934165,0,103,2.26318359375E-5,44,61,36,898380,16767704,19913,8885,7180,9388,3600,2214,Tag0,unknown
1499247934165,0,89,1.95556640625E-5,44,61,36,898380,16767704,19913,8885,7180,9388,3600,2214,Tag0,unknown
1499247934165,0,107,2.35107421875E-5,44,61,36,898380,16767704,19913,8885,7180,9388,3600,2214,Tag0,unknown
1499247934165,0,-120,-2.63671875E-5,44,61,36,898380,16767704,19913,8885,7180,9388,3600,2214,Tag0,unknown
1499247934165,0,-123,-2.70263671875E-5,44,61,36,898380,16767704,19913,8885,7180,9388,3600,2214,Tag0,unknown
1499247934165,0,99,2.1752929687500003E-5,44,61,36,898380,16767704,19913,8885,7180,9388,3600,2214,Tag0,unknown
1499247934166,0,42,9.228515625000002E-6,44,61,36,898380,16767704,19913,8885,7180,9388,3600,2214,Tag0,unknown
1499247934166,0,-262,-5.7568359375E-5,44,61,36,898380,16767704,19913,8885,7180,9388,3600,2214,Tag0,unknown
1499247934166,0,-283,-6.218261718750001E-5,44,61,36,898380,16767704,19913,8885,7180,9388,3600,2214,Tag0,unknown
1499247934166,0,-292,-6.416015625000001E-5,44,61,36,898380,16767704,19913,8885,7180,9388,3600,2214,Tag0,unknown
1499247934166,0,-298,-6.5478515625E-5,44,61,36,898380,16767704,19913,8885,7180,9388,3600,2214,Tag0,unknown
1499247934166,0,-301,-6.613769531250001E-5,44,61,36,898380,16767704,19913,8885,7180,9388,3600,2214,Tag0,unknown
1499247934166,0,-267,-5.86669921875E-5,44,61,36,898380,16767704,19913,8885,7180,9388,3600,2214,Tag0,unknown
1499247934167,0,32,7.03125E-6,44,61,36,898380,16767704,19913,8885,7180,9388,3600,2214,Tag0,unknown
1499247934167,0,10,2.197265625E-6,44,61,36,898380,16767704,19913,8885,7180,9388,3600,2214,Tag0,unknown
1499247934167,0,-265,-5.82275390625E-5,44,61,36,898380,16767704,19913,8885,7180,9388,3600,2214,Tag0,unknown
1499247934167,0,-260,-5.712890625E-5,44,61,36,898380,16767704,19913,8885,7180,9388,3600,2214,Tag0,unknown
1499247934167,0,10,2.197265625E-6,44,61,36,898380,16767704,19913,8885,7180,9388,3600,2214,Tag0,unknown
1499247934167,0,19,4.1748046875E-6,44,61,36,898380,16767704,19913,8885,7180,9388,3600,2214,Tag0,unknown
1499247934167,0,8,1.7578125E-6,44,61,36,898380,16767704,19913,8885,7180,9388,3600,2214,Tag0,unknown
1499247934167,0,-260,-5.712890625E-5,44,61,36,898380,16767704,19913,8885,7180,9388,3600,2214,Tag0,unknown
1499247934168,0,-262,-5.7568359375E-5,44,61,36,898380,16767704,19913,8885,7180,9388,3600,2214,Tag0,unknown
1499247934168,0,-261,-5.73486328125E-5,44,61,36,898380,16767704,19913,8885,7180,9388,3600,2214,Tag0,unknown
1499247934168,0,-257,-5.64697265625E-5,44,61,36,898380,16767704,19913,8885,7180,9388,3600,2214,Tag0,unknown
1499247934168,0,-266,-5.8447265625E-5,44,61,36,898380,16767704,19913,8885,7180,9388,3600,2214,Tag0,unknown
1499247934168,0,-276,-6.064453125E-5,44,61,36,898380,16767704,19913,8885,7180,9388,3600,2214,Tag0,unknown
1499247934168,0,-262,-5.7568359375E-5,44,61,36,898380,16767704,19913,8885,7180,9388,3600,2214,Tag0,unknown
1499247934168,0,12,2.63671875E-6,44,61,36,898380,16767704,19913,8885,7180,9388,3600,2214,Tag0,unknown
1499247934169,0,33,7.2509765625E-6,44,61,36,898380,16767704,19913,8885,7180,9388,3600,2214,Tag0,unknown
1499247934169,0,44,9.66796875E-6,44,61,36,898380,16767704,19913,8885,7180,9388,3600,2214,Tag0,unknown
1499247934169,0,66,1.4501953125E-5,44,61,36,898380,16767704,19913,8885,7180,9388,3600,2214,Tag0,unknown
1499247934169,0,73,1.6040039062500002E-5,44,61,36,898380,16767704,19913,8885,7180,9388,3600,2214,Tag0,unknown
1499247934169,0,71,1.56005859375E-5,44,61,36,898380,16767704,19913,8885,7180,9388,3600,2214,Tag0,unknown
1499247934169,0,58,1.2744140625E-5,44,61,36,898380,16767704,19913,8885,7180,9388,3600,2214,Tag0,unknown
1499247934169,0,42,9.228515625000002E-6,44,61,36,898380,16767704,19913,8885,7180,9388,3600,2214,Tag0,unknown
1499247934169,0,38,8.349609375E-6,44,61,36,898380,16767704,19913,8885,7180,9388,3600,2214,Tag0,unknown
1499247934170,0,39,8.5693359375E-6,44,61,36,898380,16767704,19913,8885,7180,9388,3600,2214,Tag0,unknown
1499247934170,0,39,8.5693359375E-6,44,61,36,898380,16767704,19913,8885,7180,9388,3600,2214,Tag0,unknown
1499247934170,0,16,3.515625E-6,44,61,36,898380,16767704,19913,8885,7180,9388,3600,2214,Tag0,unknown
1499247934170,0,-267,-5.86669921875E-5,44,61,36,898380,16767704,19913,8885,7180,9388,3600,2214,Tag0,unknown
1499247934170,0,-285,-6.26220703125E-5,44,61,36,898380,16767704,19913,8885,7180,9388,3600,2214,Tag0,unknown
1499247934170,0,-316,-6.943359375000001E-5,44,61,36,898380,16767704,19913,8885,7180,9388,3600,2214,Tag0,unknown
1499247934170,0,-300,-6.591796875E-5,44,61,36,898380,16767704,19913,8885,7180,9388,3600,2214,Tag0,unknown
1499247934170,0,-261,-5.73486328125E-5,44,61,36,898380,16767704,19913,8885,7180,9388,3600,2214,Tag0,unknown
1499247934171,0,16,3.515625E-6,44,61,36,898380,16767704,19913,8885,7180,9388,3600,2214,Tag0,unknown
1499247934171,0,5,1.0986328125E-6,44,61,36,898380,16767704,19913,8885,7180,9388,3600,2214,Tag0,unknown
1499247934171,0,-266,-5.8447265625E-5,44,61,36,898380,16767704,19913,8885,7180,9388,3600,2214,Tag0,unknown
1499247934171,0,-274,-6.0205078124999997E-5,44,61,36,898380,16767704,19913,8885,7180,9388,3600,2214,Tag0,unknown
1499247934171,0,-266,-5.8447265625E-5,44,61,36,898380,16767704,19913,8885,7180,9388,3600,2214,Tag0,unknown
1499247934171,0,7,1.5380859375E-6,44,61,36,898380,16767704,19913,8885,7180,9388,3600,2214,Tag0,unknown
1499247934171,0,35,7.6904296875E-6,44,61,36,898380,16767704,19913,8885,7180,9388,3600,2214,Tag0,unknown
1499247934172,0,26,5.712890625E-6,44,61,36,898380,16767704,19913,8885,7180,9388,3600,2214,Tag0,unknown
1499247934172,0,0,0.0,44,61,36,898380,16767704,19913,8885,7180,9388,3600,2214,Tag0,unknown
1499247934172,0,-260,-5.712890625E-5,44,61,36,898380,16767704,19913,8885,7180,9388,3600,2214,Tag0,unknown
1499247934172,0,34,7.4707031250000005E-6,44,61,36,898380,16767704,19913,8885,7180,9388,3600,2214,Tag0,unknown
1499247934172,0,81,1.77978515625E-5,44,61,36,898380,16767704,19913,8885,7180,9388,3600,2214,Tag0,unknown
1499247934172,0,91,1.99951171875E-5,44,61,36,898380,16767704,19913,8885,7180,9388,3600,2214,Tag0,unknown
1499247934172,0,53,1.1645507812500002E-5,44,61,36,898380,16767704,19913,8885,7180,9388,3600,2214,Tag0,unknown
1499247934173,0,17,3.7353515625000003E-6,44,61,36,898380,16767704,19913,8885,7180,9388,3600,2214,Tag0,unknown
1499247934173,0,2,4.39453125E-7,44,61,36,898380,16767704,19913,8885,7180,9388,3600,2214,Tag0,unknown
1499247934173,0,-261,-5.73486328125E-5,44,61,36,898380,16767704,19913,8885,7180,9388,3600,2214,Tag0,unknown
1499247934173,0,-265,-5.82275390625E-5,44,61,36,898380,16767704,19913,8885,7180,9388,3600,2214,Tag0,unknown
1499247934173,0,1,2.197265625E-7,44,61,36,898380,16767704,19913,8885,7180,9388,3600,2214,Tag0,unknown
1499247934173,0,-267,-5.86669921875E-5,44,61,36,898380,16767704,19913,8885,7180,9388,3600,2214,Tag0,unknown
1499247934173,0,-310,-6.8115234375E-5,44,61,36,898380,16767704,19913,8885,7180,9388,3600,2214,Tag0,unknown
1499247934173,0,-300,-6.591796875E-5,44,61,36,898380,16767704,19913,8885,7180,9388,3600,2214,Tag0,unknown
1499247934174,0,4,8.7890625E-7,44,61,36,898380,16767704,19913,8885,7180,9388,3600,2214,Tag0,unknown
1499247934174,0,18,3.955078125E-6,44,61,36,898380,16767704,19913,8885,7180,9388,3600,2214,Tag0,unknown
1499247934174,0,11,2.4169921875E-6,44,61,36,898380,16767704,19913,8885,7180,9388,3600,2214,Tag0,unknown
1499247934174,0,42,9.228515625000002E-6,44,61,36,898380,16767704,19913,8885,7180,9388,3600,2214,Tag0,unknown
1499247934174,0,90,1.9775390625E-5,44,61,36,898380,16767704,19913,8885,7180,9388,3600,2214,Tag0,unknown
1499247934174,0,-107,-2.35107421875E-5,44,61,36,898380,16767704,19913,8885,7180,9388,3600,2214,Tag0,unknown
1499247934174,0,-58,-1.2744140625E-5,44,61,36,898380,16767704,19913,8885,7180,9388,3600,2214,Tag0,unknown
1499247934175,0,-30,-6.591796875E-6,44,61,36,898380,16767704,19913,8885,7180,9388,3600,2214,Tag0,unknown
1499247934175,0,-54,-1.1865234375000001E-5,44,61,36,898380,16767704,19913,8885,7180,9388,3600,2214,Tag0,unknown
1499247934175,0,-96,-2.109375E-5,44,61,36,898380,16767704,19913,8885,7180,9388,3600,2214,Tag0,unknown
1499247934175,0,-125,-2.74658203125E-5,44,61,36,898380,16767704,19913,8885,7180,9388,3600,2214,Tag0,unknown
1499247934175,0,117,2.5708007812499998E-5,44,61,36,898380,16767704,19913,8885,7180,9388,3600,2214,Tag0,unknown
1499247934175,0,117,2.5708007812499998E-5,44,61,36,898380,16767704,19913,8885,7180,9388,3600,2214,Tag0,unknown
1499247934175,0,120,2.63671875E-5,44,61,36,898380,16767704,19913,8885,7180,9388,3600,2214,Tag0,unknown
1499247934176,0,109,2.39501953125E-5,44,61,36,898380,16767704,19913,8885,7180,9388,3600,2214,Tag0,unknown
1499247934176,0,92,2.021484375E-5,44,61,36,898380,16767704,19913,8885,7180,9388,3600,2214,Tag0,unknown
1499247934176,0,75,1.64794921875E-5,44,61,36,898380,16767704,19913,8885,7180,9388,3600,2214,Tag0,unknown
1499247934176,0,64,1.40625E-5,44,61,36,898380,16767704,19913,8885,7180,9388,3600,2214,Tag0,unknown
1499247934176,0,66,1.4501953125E-5,44,61,36,898380,16767704,19913,8885,7180,9388,3600,2214,Tag0,unknown
1499247934176,0,76,1.669921875E-5,44,61,36,898380,16767704,19913,8885,7180,9388,3600,2214,Tag0,unknown
1499247934176,0,81,1.77978515625E-5,44,61,36,898380,16767704,19913,8885,7180,9388,3600,2214,Tag0,unknown
1499247934177,0,74,1.6259765625E-5,44,61,36,898380,16767704,19913,8885,7180,9388,3600,2214,Tag0,unknown
1499247934177,0,76,1.669921875E-5,44,61,36,898380,16767704,19913,8885,7180,9388,3600,2214,Tag0,unknown
1499247934177,0,91,1.99951171875E-5,44,61,36,898380,16767704,19913,8885,7180,9388,3600,2214,Tag0,unknown
1499247934177,0,107,2.35107421875E-5,44,61,36,898380,16767704,19913,8885,7180,9388,3600,2214,Tag0,unknown
1499247934177,0,118,2.5927734375E-5,44,61,36,898380,16767704,19913,8885,7180,9388,3600,2214,Tag0,unknown
1499247934177,0,97,2.13134765625E-5,44,61,36,898380,16767704,19913,8885,7180,9388,3600,2214,Tag0,unknown
1499247934177,0,64,1.40625E-5,44,61,36,898380,16767704,19913,8885,7180,9388,3600,2214,Tag0,unknown
1499247934178,0,52,1.142578125E-5,44,61,36,898380,16767704,19913,8885,7180,9388,3600,2214,Tag0,unknown
1499247934178,0,82,1.8017578124999998E-5,44,61,36,898380,16767704,19913,8885,7180,9388,3600,2214,Tag0,unknown
1499247934178,0,92,2.021484375E-5,44,61,36,898380,16767704,19913,8885,7180,9388,3600,2214,Tag0,unknown
1499247934178,0,64,1.40625E-5,44,61,36,898380,16767704,19913,8885,7180,9388,3600,2214,Tag0,unknown
1499247934178,0,70,1.5380859375E-5,44,61,36,898380,16767704,19913,8885,7180,9388,3600,2214,Tag0,unknown
1499247934178,0,109,2.39501953125E-5,44,61,36,898380,16767704,19913,8885,7180,9388,3600,2214,Tag0,unknown
1499247934178,0,-123,-2.70263671875E-5,44,61,36,898380,16767704,19913,8885,7180,9388,3600,2214,Tag0,unknown
1499247934178,0,113,2.48291015625E-5,44,61,36,898380,16767704,19913,8885,7180,9388,3600,2214,Tag0,unknown
1499247934179,0,84,1.8457031250000004E-5,44,61,36,898380,16767704,19913,8885,7180,9388,3600,2214,Tag0,unknown
1499247934179,0,85,1.86767578125E-5,44,61,36,898380,16767704,19913,8885,7180,9388,3600,2214,Tag0,unknown
1499247934179,0,98,2.1533203125E-5,44,61,36,898380,16767704,19913,8885,7180,9388,3600,2214,Tag0,unknown
1499247934179,0,81,1.77978515625E-5,44,61,36,898380,16767704,19913,8885,7180,9388,3600,2214,Tag0,unknown
1499247934179,0,71,1.56005859375E-5,44,61,36,898380,16767704,19913,8885,7180,9388,3600,2214,Tag0,unknown
1499247934179,0,74,1.6259765625E-5,44,61,36,898380,16767704,19913,8885,7180,9388,3600,2214,Tag0,unknown
1499247934179,0,73,1.6040039062500002E-5,44,61,36,898380,16767704,19913,8885,7180,9388,3600,2214,Tag0,unknown
1499247934180,0,57,1.2524414062500001E-5,44,61,36,898380,16767704,19913,8885,7180,9388,3600,2214,Tag0,unknown
1499247934180,0,51,1.1206054687499999E-5,44,61,36,898380,16767704,19913,8885,7180,9388,3600,2214,Tag0,unknown
1499247934180,0,59,1.29638671875E-5,44,61,36,898380,16767704,19913,8885,7180,9388,3600,2214,Tag0,unknown
1499247934180,0,64,1.40625E-5,44,61,36,898380,16767704,19913,8885,7180,9388,3600,2214,Tag0,unknown
1499247934180,0,69,1.51611328125E-5,44,61,36,898380,16767704,19913,8885,7180,9388,3600,2214,Tag0,unknown
1499247934180,0,98,2.1533203125E-5,44,61,36,898380,16767704,19913,8885,7180,9388,3600,2214,Tag0,unknown
1499247934180,0,-116,-2.548828125E-5,44,61,36,898380,16767704,19913,8885,7180,9388,3600,2214,Tag0,unknown
1499247934180,0,-71,-1.56005859375E-5,44,61,36,898380,16767704,19913,8885,7180,9388,3600,2214,Tag0,unknown
1499247934181,0,-36,-7.91015625E-6,44,61,36,898380,16767704,19913,8885,7180,9388,3600,2214,Tag0,unknown
1499247934181,0,256,5.625E-5,44,61,36,898380,16767704,19913,8885,7180,9388,3600,2214,Tag0,unknown
1499247934181,0,301,6.613769531250001E-5,44,61,36,898380,16767704,19913,8885,7180,9388,3600,2214,Tag0,unknown
1499247934186,0,313,6.87744140625E-5,44,61,36,898380,16767704,19913,8885,7180,9388,3600,2214,Tag0,unknown
1499247934186,0,300,6.591796875E-5,44,61,36,898380,16767704,19913,8885,7180,9388,3600,2214,Tag0,unknown
1499247934186,0,307,6.74560546875E-5,44,61,36,898380,16767704,19913,8885,7180,9388,3600,2214,Tag0,unknown
1499247934186,0,323,7.09716796875E-5,44,61,36,898380,16767704,19913,8885,7180,9388,3600,2214,Tag0,unknown
1499247934186,0,326,7.163085937500001E-5,44,61,36,898380,16767704,19913,8885,7180,9388,3600,2214,Tag0,unknown
1499247934187,0,344,7.558593750000001E-5,44,61,36,898380,16767704,19913,8885,7180,9388,3600,2214,Tag0,unknown
1499247934187,0,378,8.3056640625E-5,44,61,36,898380,16767704,19913,8885,7180,9388,3600,2214,Tag0,unknown
1499247934187,0,379,8.32763671875E-5,44,61,36,898380,16767704,19913,8885,7180,9388,3600,2214,Tag0,unknown
1499247934187,0,375,8.23974609375E-5,44,61,36,898380,16767704,19913,8885,7180,9388,3600,2214,Tag0,unknown
1499247934187,0,155,3.40576171875E-5,44,61,36,898380,16767704,19913,8885,7180,9388,3600,2214,Tag0,unknown
1499247934187,0,197,4.32861328125E-5,44,61,36,898380,16767704,19913,8885,7180,9388,3600,2214,Tag0,unknown
1499247934187,0,225,4.94384765625E-5,44,61,36,898380,16767704,19913,8885,7180,9388,3600,2214,Tag0,unknown
1499247934187,0,514,1.12939453125E-4,44,61,36,898380,16767704,19913,8885,7180,9388,3600,2214,Tag0,unknown
1499247934188,0,530,1.16455078125E-4,44,61,36,898380,16767704,19913,8885,7180,9388,3600,2214,Tag0,unknown
1499247934188,0,521,1.1447753906250001E-4,44,61,36,898380,16767704,19913,8885,7180,9388,3600,2214,Tag0,unknown
1499247934188,0,517,1.135986328125E-4,44,61,36,898380,16767704,19913,8885,7180,9388,3600,2214,Tag0,unknown
1499247934188,0,540,1.1865234375E-4,44,61,36,898380,16767704,19913,8885,7180,9388,3600,2214,Tag0,unknown
1499247934188,0,552,1.212890625E-4,44,61,36,898380,16767704,19913,8885,7180,9388,3600,2214,Tag0,unknown
1499247934189,0,547,1.201904296875E-4,44,61,36,898380,16767704,19913,8885,7180,9388,3600,2214,Tag0,unknown
1499247934189,0,535,1.175537109375E-4,44,61,36,898380,16767704,19913,8885,7180,9388,3600,2214,Tag0,unknown
1499247934189,0,519,1.140380859375E-4,44,61,36,898380,16767704,19913,8885,7180,9388,3600,2214,Tag0,unknown
1499247934189,0,249,5.47119140625E-5,44,61,36,898380,16767704,19913,8885,7180,9388,3600,2214,Tag0,unknown
1499247934189,0,249,5.47119140625E-5,44,61,36,898380,16767704,19913,8885,7180,9388,3600,2214,Tag0,unknown
1499247934189,0,250,5.4931640625E-5,44,61,36,898380,16767704,19913,8885,7180,9388,3600,2214,Tag0,unknown
1499247934189,0,250,5.4931640625E-5,44,61,36,898380,16767704,19913,8885,7180,9388,3600,2214,Tag0,unknown
1499247934190,0,213,4.68017578125E-5,44,61,36,898380,16767704,19913,8885,7180,9388,3600,2214,Tag0,unknown
1499247934190,0,149,3.27392578125E-5,44,61,36,898380,16767704,19913,8885,7180,9388,3600,2214,Tag0,unknown
1499247934190,0,356,7.822265625E-5,44,61,36,898380,16767704,19913,8885,7180,9388,3600,2214,Tag0,unknown
1499247934190,0,327,7.18505859375E-5,44,61,36,898380,16767704,19913,8885,7180,9388,3600,2214,Tag0,unknown
1499247934190,0,283,6.218261718750001E-5,44,61,36,898380,16767704,19913,8885,7180,9388,3600,2214,Tag0,unknown
1499247934190,0,-31,-6.8115234375E-6,44,61,36,898380,16767704,19913,8885,7180,9388,3600,2214,Tag0,unknown
1499247934190,0,-61,-1.34033203125E-5,44,61,36,898380,16767704,19913,8885,7180,9388,3600,2214,Tag0,unknown
1499247934190,0,-62,-1.3623046875E-5,44,61,36,898380,16767704,19913,8885,7180,9388,3600,2214,Tag0,unknown
1499247934191,0,-67,-1.4721679687500002E-5,44,61,36,898380,16767704,19913,8885,7180,9388,3600,2214,Tag0,unknown
1499247934191,0,-90,-1.9775390625E-5,44,61,36,898380,16767704,19913,8885,7180,9388,3600,2214,Tag0,unknown
1499247934191,0,97,2.13134765625E-5,44,61,36,898380,16767704,19913,8885,7180,9388,3600,2214,Tag0,unknown
1499247934191,0,7,1.5380859375E-6,44,61,36,898380,16767704,19913,8885,7180,9388,3600,2214,Tag0,unknown
1499247934191,0,-297,-6.525878906250001E-5,44,61,36,898380,16767704,19913,8885,7180,9388,3600,2214,Tag0,unknown
1499247934191,0,-301,-6.613769531250001E-5,44,61,36,898380,16767704,19913,8885,7180,9388,3600,2214,Tag0,unknown
1499247934191,0,-308,-6.767578125E-5,44,61,36,898380,16767704,19913,8885,7180,9388,3600,2214,Tag0,unknown
1499247934192,0,-327,-7.18505859375E-5,44,61,36,898380,16767704,19913,8885,7180,9388,3600,2214,Tag0,unknown
1499247934192,0,-133,-2.92236328125E-5,44,61,36,898380,16767704,19913,8885,7180,9388,3600,2214,Tag0,unknown
1499247934192,0,-198,-4.3505859375000006E-5,44,61,36,898380,16767704,19913,8885,7180,9388,3600,2214,Tag0,unknown
1499247934192,0,-248,-5.44921875E-5,44,61,36,898380,16767704,19913,8885,7180,9388,3600,2214,Tag0,unknown
1499247934192,0,-521,-1.1447753906250001E-4,44,61,36,898380,16767704,19913,8885,7180,9388,3600,2214,Tag0,unknown
1499247934192,0,-523,-1.149169921875E-4,44,61,36,898380,16767704,19913,8885,7180,9388,3600,2214,Tag0,unknown
1499247934192,0,-517,-1.135986328125E-4,44,61,36,898380,16767704,19913,8885,7180,9388,3600,2214,Tag0,unknown
1499247934192,0,-522,-1.14697265625E-4,44,61,36,898380,16767704,19913,8885,7180,9388,3600,2214,Tag0,unknown
1499247934193,0,-523,-1.149169921875E-4,44,61,36,898380,16767704,19913,8885,7180,9388,3600,2214,Tag0,unknown
1499247934193,0,-530,-1.16455078125E-4,44,61,36,898380,16767704,19913,8885,7180,9388,3600,2214,Tag0,unknown
1499247934193,0,-536,-1.1777343750000001E-4,44,61,36,898380,16767704,19913,8885,7180,9388,3600,2214,Tag0,unknown
1499247934193,0,-561,-1.232666015625E-4,44,61,36,898380,16767704,19913,8885,7180,9388,3600,2214,Tag0,unknown
1499247934193,0,-552,-1.212890625E-4,44,61,36,898380,16767704,19913,8885,7180,9388,3600,2214,Tag0,unknown
1499247934193,0,-248,-5.44921875E-5,44,61,36,898380,16767704,19913,8885,7180,9388,3600,2214,Tag0,unknown
1499247934193,0,-214,-4.7021484375E-5,44,61,36,898380,16767704,19913,8885,7180,9388,3600,2214,Tag0,unknown
1499247934194,0,-237,-5.2075195312500004E-5,44,61,36,898380,16767704,19913,8885,7180,9388,3600,2214,Tag0,unknown
1499247934194,0,-572,-1.2568359375E-4,44,61,36,898380,16767704,19913,8885,7180,9388,3600,2214,Tag0,unknown
1499247934194,0,-615,-1.351318359375E-4,44,61,36,898380,16767704,19913,8885,7180,9388,3600,2214,Tag0,unknown
1499247934194,0,-588,-1.2919921875E-4,44,61,36,898380,16767704,19913,8885,7180,9388,3600,2214,Tag0,unknown
1499247934194,0,-548,-1.2041015624999999E-4,44,61,36,898380,16767704,19913,8885,7180,9388,3600,2214,Tag0,unknown
1499247934194,0,-520,-1.142578125E-4,44,61,36,898380,16767704,19913,8885,7180,9388,3600,2214,Tag0,unknown
1499247934194,0,-532,-1.1689453125E-4,44,61,36,898380,16767704,19913,8885,7180,9388,3600,2214,Tag0,unknown
1499247934195,0,-569,-1.250244140625E-4,44,61,36,898380,16767704,19913,8885,7180,9388,3600,2214,Tag0,unknown
1499247934195,0,-612,-1.3447265625000002E-4,44,61,36,898380,16767704,19913,8885,7180,9388,3600,2214,Tag0,unknown
1499247935467,0,-386,-8.481445312500001E-5,44,61,36,898380,16767704,19913,8885,7180,9388,3600,2214,Tag0,unknown
1499247935468,0,-613,-1.3469238281250002E-4,44,61,36,898380,16767704,19913,8885,7180,9388,3600,2214,Tag0,unknown
1499247935469,0,-557,-1.223876953125E-4,44,61,36,898380,16767704,19913,8885,7180,9388,3600,2214,Tag0,unknown
1499247935469,0,-535,-1.175537109375E-4,44,61,36,898380,16767704,19913,8885,7180,9388,3600,2214,Tag0,unknown
1499247935469,0,-533,-1.171142578125E-4,44,61,36,898380,16767704,19913,8885,7180,9388,3600,2214,Tag0,unknown
1499247935470,0,-523,-1.149169921875E-4,44,61,36,898380,16767704,19913,8885,7180,9388,3600,2214,Tag0,unknown
1499247935470,0,-525,-1.153564453125E-4,44,61,36,898380,16767704,19913,8885,7180,9388,3600,2214,Tag0,unknown
1499247935470,0,-530,-1.16455078125E-4,44,61,36,898380,16767704,19913,8885,7180,9388,3600,2214,Tag0,unknown
1499247935471,0,-523,-1.149169921875E-4,44,61,36,898380,16767704,19913,8885,7180,9388,3600,2214,Tag0,unknown
1499247935471,0,-245,-5.38330078125E-5,44,61,36,898380,16767704,19913,8885,7180,9388,3600,2214,Tag0,unknown
1499247935471,0,-211,-4.63623046875E-5,44,61,36,898380,16767704,19913,8885,7180,9388,3600,2214,Tag0,unknown
1499247935472,0,-200,-4.39453125E-5,44,61,36,898380,16767704,19913,8885,7180,9388,3600,2214,Tag0,unknown
1499247935472,0,-194,-4.2626953125E-5,44,61,36,898380,16767704,19913,8885,7180,9388,3600,2214,Tag0,unknown
1499247935472,0,-186,-4.0869140625E-5,44,61,36,898380,16767704,19913,8885,7180,9388,3600,2214,Tag0,unknown
1499247935473,0,-169,-3.7133789062499996E-5,44,61,36,898380,16767704,19913,8885,7180,9388,3600,2214,Tag0,unknown
1499247935473,0,-146,-3.2080078125000004E-5,44,61,36,898380,16767704,19913,8885,7180,9388,3600,2214,Tag0,unknown
1499247935473,0,-359,-7.88818359375E-5,44,61,36,898380,16767704,19913,8885,7180,9388,3600,2214,Tag0,unknown
1499247935474,0,-329,-7.229003906250001E-5,44,61,36,898380,16767704,19913,8885,7180,9388,3600,2214,Tag0,unknown
1499247935474,0,-325,-7.14111328125E-5,44,61,36,898380,16767704,19913,8885,7180,9388,3600,2214,Tag0,unknown
1499247935474,0,-311,-6.833496093750001E-5,44,61,36,898380,16767704,19913,8885,7180,9388,3600,2214,Tag0,unknown
1499247935474,0,-296,-6.50390625E-5,44,61,36,898380,16767704,19913,8885,7180,9388,3600,2214,Tag0,unknown
1499247935475,0,-291,-6.39404296875E-5,44,61,36,898380,16767704,19913,8885,7180,9388,3600,2214,Tag0,unknown
1499247935475,0,-275,-6.04248046875E-5,44,61,36,898380,16767704,19913,8885,7180,9388,3600,2214,Tag0,unknown
1499247935476,0,-267,-5.86669921875E-5,44,61,36,898380,16767704,19913,8885,7180,9388,3600,2214,Tag0,unknown
1499247935476,0,-283,-6.218261718750001E-5,44,61,36,898380,16767704,19913,8885,7180,9388,3600,2214,Tag0,unknown
1499247935477,0,-300,-6.591796875E-5,44,61,36,898380,16767704,19913,8885,7180,9388,3600,2214,Tag0,unknown
1499247935478,0,-302,-6.6357421875E-5,44,61,36,898380,16767704,19913,8885,7180,9388,3600,2214,Tag0,unknown
1499247935478,0,-329,-7.229003906250001E-5,44,61,36,898380,16767704,19913,8885,7180,9388,3600,2214,Tag0,unknown
1499247935479,0,-375,-8.23974609375E-5,44,61,36,898380,16767704,19913,8885,7180,9388,3600,2214,Tag0,unknown
1499247935479,0,-148,-3.251953125E-5,44,61,36,898380,16767704,19913,8885,7180,9388,3600,2214,Tag0,unknown
1499247935479,0,-130,-2.8564453125E-5,44,61,36,898380,16767704,19913,8885,7180,9388,3600,2214,Tag0,unknown
1499247935480,0,-344,-7.558593750000001E-5,44,61,36,898380,16767704,19913,8885,7180,9388,3600,2214,Tag0,unknown
1499247935480,0,-314,-6.8994140625E-5,44,61,36,898380,16767704,19913,8885,7180,9388,3600,2214,Tag0,unknown
1499247935480,0,-292,-6.416015625000001E-5,44,61,36,898380,16767704,19913,8885,7180,9388,3600,2214,Tag0,unknown
1499247935481,0,-261,-5.73486328125E-5,44,61,36,898380,16767704,19913,8885,7180,9388,3600,2214,Tag0,unknown
1499247935481,0,29,6.3720703125E-6,44,61,36,898380,16767704,19913,8885,7180,9388,3600,2214,Tag0,unknown
1499247935483,0,59,1.29638671875E-5,44,61,72,898380,16767704,19913,8885,7180,9388,3600,2214,Tag0,unknown
1499247935484,0,83,1.82373046875E-5,44,61,72,898380,16767704,19913,8885,7180,9388,3600,2214,Tag0,unknown
1499247935484,0,101,2.2192382812500002E-5,44,61,72,898380,16767704,19913,8885,7180,9388,3600,2214,Tag0,unknown
1499247935485,0,118,2.5927734375E-5,44,61,72,898380,16767704,19913,8885,7180,9388,3600,2214,Tag0,unknown
1499247935485,0,122,2.6806640625E-5,44,61,72,898380,16767704,19913,8885,7180,9388,3600,2214,Tag0,unknown
1499247935485,0,113,2.48291015625E-5,44,61,72,898380,16767704,19913,8885,7180,9388,3600,2214,Tag0,unknown
1499247935486,0,89,1.95556640625E-5,44,61,72,898380,16767704,19913,8885,7180,9388,3600,2214,Tag0,unknown
1499247935486,0,69,1.51611328125E-5,44,61,72,898380,16767704,19913,8885,7180,9388,3600,2214,Tag0,unknown
1499247935486,0,52,1.142578125E-5,44,61,72,898380,16767704,19913,8885,7180,9388,3600,2214,Tag0,unknown
1499247935487,0,38,8.349609375E-6,44,61,72,898380,16767704,19913,8885,7180,9388,3600,2214,Tag0,unknown
1499247935487,0,26,5.712890625E-6,44,61,72,898380,16767704,19913,8885,7180,9388,3600,2214,Tag0,unknown
1499247935488,0,36,7.91015625E-6,44,61,72,898380,16767704,19913,8885,7180,9388,3600,2214,Tag0,unknown
1499247935488,0,69,1.51611328125E-5,44,61,72,898380,16767704,19913,8885,7180,9388,3600,2214,Tag0,unknown
1499247935488,0,99,2.1752929687500003E-5,44,61,72,898380,16767704,19913,8885,7180,9388,3600,2214,Tag0,unknown
1499247935488,0,117,2.5708007812499998E-5,44,61,72,898380,16767704,19913,8885,7180,9388,3600,2214,Tag0,unknown
1499247935489,0,107,2.35107421875E-5,44,61,72,898380,16767704,19913,8885,7180,9388,3600,2214,Tag0,unknown
1499247935489,0,84,1.8457031250000004E-5,44,61,72,898380,16767704,19913,8885,7180,9388,3600,2214,Tag0,unknown
1499247935489,0,82,1.8017578124999998E-5,44,61,72,898380,16767704,19913,8885,7180,9388,3600,2214,Tag0,unknown
1499247935490,0,90,1.9775390625E-5,44,61,72,898380,16767704,19913,8885,7180,9388,3600,2214,Tag0,unknown
1499247935490,0,70,1.5380859375E-5,44,61,72,898380,16767704,19913,8885,7180,9388,3600,2214,Tag0,unknown
1499247935491,0,43,9.448242187500001E-6,44,61,72,898380,16767704,19913,8885,7180,9388,3600,2214,Tag0,unknown
1499247935491,0,38,8.349609375E-6,44,61,72,898380,16767704,19913,8885,7180,9388,3600,2214,Tag0,unknown
1499247935491,0,42,9.228515625000002E-6,44,61,72,898380,16767704,19913,8885,7180,9388,3600,2214,Tag0,unknown
1499247935492,0,51,1.1206054687499999E-5,44,61,72,898380,16767704,19913,8885,7180,9388,3600,2214,Tag0,unknown
1499247935492,0,51,1.1206054687499999E-5,44,61,72,898380,16767704,19913,8885,7180,9388,3600,2214,Tag0,unknown
1499247935492,0,35,7.6904296875E-6,44,61,72,898380,16767704,19913,8885,7180,9388,3600,2214,Tag0,unknown
1499247935493,0,23,5.0537109375E-6,44,61,72,898380,16767704,19913,8885,7180,9388,3600,2214,Tag0,unknown
1499247935494,0,25,5.4931640625E-6,44,61,72,898380,16767704,19913,8885,7180,9388,3600,2214,Tag0,unknown
1499247935494,0,11,2.4169921875E-6,44,61,72,898380,16767704,19913,8885,7180,9388,3600,2214,Tag0,unknown
1499247935494,0,10,2.197265625E-6,44,61,72,898380,16767704,19913,8885,7180,9388,3600,2214,Tag0,unknown
1499247935495,0,36,7.91015625E-6,44,61,72,898380,16767704,19913,8885,7180,9388,3600,2214,Tag0,unknown
1499247935495,0,37,8.1298828125E-6,44,61,72,898380,16767704,19913,8885,7180,9388,3600,2214,Tag0,unknown
1499247935496,0,11,2.4169921875E-6,44,61,72,898380,16767704,19913,8885,7180,9388,3600,2214,Tag0,unknown
1499247935496,0,-259,-5.69091796875E-5,44,61,72,898380,16767704,19913,8885,7180,9388,3600,2214,Tag0,unknown
1499247935497,0,-260,-5.712890625E-5,44,61,72,898380,16767704,19913,8885,7180,9388,3600,2214,Tag0,unknown
1499247935497,0,2,4.39453125E-7,44,61,72,898380,16767704,19913,8885,7180,9388,3600,2214,Tag0,unknown
1499247935497,0,13,2.8564453125E-6,44,61,72,898380,16767704,19913,8885,7180,9388,3600,2214,Tag0,unknown
1499247935498,0,25,5.4931640625E-6,44,61,72,898380,16767704,19913,8885,7180,9388,3600,2214,Tag0,unknown
1499247935498,0,24,5.2734375E-6,44,61,72,898380,16767704,19913,8885,7180,9388,3600,2214,Tag0,unknown
1499247935498,0,23,5.0537109375E-6,44,61,72,898380,16767704,19913,8885,7180,9388,3600,2214,Tag0,unknown
1499247935499,0,56,1.23046875E-5,44,61,72,898380,16767704,19913,8885,7180,9388,3600,2214,Tag0,unknown
1499247935499,0,92,2.021484375E-5,44,61,72,898380,16767704,19913,8885,7180,9388,3600,2214,Tag0,unknown
1499247935499,0,116,2.548828125E-5,44,61,72,898380,16767704,19913,8885,7180,9388,3600,2214,Tag0,unknown
1499247935500,0,-128,-2.8125E-5,44,61,72,898380,16767704,19913,8885,7180,9388,3600,2214,Tag0,unknown
1499247935500,0,88,1.93359375E-5,44,61,72,898380,16767704,19913,8885,7180,9388,3600,2214,Tag0,unknown
1499247935500,0,17,3.7353515625000003E-6,44,61,72,898380,16767704,19913,8885,7180,9388,3600,2214,Tag0,unknown
1499247935501,0,-277,-6.0864257812500005E-5,44,61,72,898380,16767704,19913,8885,7180,9388,3600,2214,Tag0,unknown
1499247935501,0,-260,-5.712890625E-5,44,61,72,898380,16767704,19913,8885,7180,9388,3600,2214,Tag0,unknown
1499247935501,0,32,7.03125E-6,44,61,72,898380,16767704,19913,8885,7180,9388,3600,2214,Tag0,unknown
1499247935502,0,44,9.66796875E-6,44,61,72,898380,16767704,19913,8885,7180,9388,3600,2214,Tag0,unknown
1499247935502,0,52,1.142578125E-5,44,61,72,898380,16767704,19913,8885,7180,9388,3600,2214,Tag0,unknown
1499247935502,0,66,1.4501953125E-5,44,61,72,898380,16767704,19913,8885,7180,9388,3600,2214,Tag0,unknown
1499247935503,0,98,2.1533203125E-5,44,61,72,898380,16767704,19913,8885,7180,9388,3600,2214,Tag0,unknown
1499247935503,0,123,2.70263671875E-5,44,61,72,898380,16767704,19913,8885,7180,9388,3600,2214,Tag0,unknown
1499247935503,0,120,2.63671875E-5,44,61,72,898380,16767704,19913,8885,7180,9388,3600,2214,Tag0,unknown
1499247935504,0,119,2.6147460937500004E-5,44,61,72,898380,16767704,19913,8885,7180,9388,3600,2214,Tag0,unknown
1499247935504,0,-128,-2.8125E-5,44,61,72,898380,16767704,19913,8885,7180,9388,3600,2214,Tag0,unknown
1499247935504,0,120,2.63671875E-5,44,61,72,898380,16767704,19913,8885,7180,9388,3600,2214,Tag0,unknown
1499247935505,0,87,1.91162109375E-5,44,61,72,898380,16767704,19913,8885,7180,9388,3600,2214,Tag0,unknown
1499247935505,0,60,1.318359375E-5,44,61,72,898380,16767704,19913,8885,7180,9388,3600,2214,Tag0,unknown
1499247935505,0,43,9.448242187500001E-6,44,61,72,898380,16767704,19913,8885,7180,9388,3600,2214,Tag0,unknown
1499247935506,0,38,8.349609375E-6,44,61,72,898380,16767704,19913,8885,7180,9388,3600,2214,Tag0,unknown
1499247935506,0,35,7.6904296875E-6,44,61,72,898380,16767704,19913,8885,7180,9388,3600,2214,Tag0,unknown
1499247935507,0,27,5.9326171875000005E-6,44,61,72,898380,16767704,19913,8885,7180,9388,3600,2214,Tag0,unknown
1499247935507,0,34,7.4707031250000005E-6,44,61,72,898380,16767704,19913,8885,7180,9388,3600,2214,Tag0,unknown
1499247935507,0,54,1.1865234375000001E-5,44,61,72,898380,16767704,19913,8885,7180,9388,3600,2214,Tag0,unknown
1499247935508,0,55,1.20849609375E-5,44,61,72,898380,16767704,19913,8885,7180,9388,3600,2214,Tag0,unknown
1499247935508,0,64,1.40625E-5,44,61,72,898380,16767704,19913,8885,7180,9388,3600,2214,Tag0,unknown
1499247935509,0,81,1.77978515625E-5,44,61,72,898380,16767704,19913,8885,7180,9388,3600,2214,Tag0,unknown
1499247935509,0,74,1.6259765625E-5,44,61,72,898380,16767704,19913,8885,7180,9388,3600,2214,Tag0,unknown
1499247935509,0,64,1.40625E-5,44,61,72,898380,16767704,19913,8885,7180,9388,3600,2214,Tag0,unknown
1499247935510,0,39,8.5693359375E-6,44,61,72,898380,16767704,19913,8885,7180,9388,3600,2214,Tag0,unknown
1499247935510,0,21,4.614257812500001E-6,44,61,72,898380,16767704,19913,8885,7180,9388,3600,2214,Tag0,unknown
1499247935510,0,5,1.0986328125E-6,44,61,72,898380,16767704,19913,8885,7180,9388,3600,2214,Tag0,unknown
1499247935511,0,1,2.197265625E-7,44,61,72,898380,16767704,19913,8885,7180,9388,3600,2214,Tag0,unknown
1499247935511,0,-273,-5.998535156250001E-5,44,61,72,898380,16767704,19913,8885,7180,9388,3600,2214,Tag0,unknown
1499247935511,0,-296,-6.50390625E-5,44,61,72,898380,16767704,19913,8885,7180,9388,3600,2214,Tag0,unknown
1499247935512,0,-299,-6.56982421875E-5,44,61,72,898380,16767704,19913,8885,7180,9388,3600,2214,Tag0,unknown
1499247935512,0,-305,-6.70166015625E-5,44,61,72,898380,16767704,19913,8885,7180,9388,3600,2214,Tag0,unknown
1499247935512,0,-292,-6.416015625000001E-5,44,61,72,898380,16767704,19913,8885,7180,9388,3600,2214,Tag0,unknown
1499247935513,0,-274,-6.0205078124999997E-5,44,61,72,898380,16767704,19913,8885,7180,9388,3600,2214,Tag0,unknown
1499247935513,0,-273,-5.998535156250001E-5,44,61,72,898380,16767704,19913,8885,7180,9388,3600,2214,Tag0,unknown
1499247935513,0,-279,-6.13037109375E-5,44,61,72,898380,16767704,19913,8885,7180,9388,3600,2214,Tag0,unknown
1499247935514,0,-307,-6.74560546875E-5,44,61,72,898380,16767704,19913,8885,7180,9388,3600,2214,Tag0,unknown
1499247935514,0,-338,-7.426757812499999E-5,44,61,72,898380,16767704,19913,8885,7180,9388,3600,2214,Tag0,unknown
1499247935514,0,-356,-7.822265625E-5,44,61,72,898380,16767704,19913,8885,7180,9388,3600,2214,Tag0,unknown
1499247935515,0,-371,-8.151855468750001E-5,44,61,72,898380,16767704,19913,8885,7180,9388,3600,2214,Tag0,unknown
1499247935515,0,-362,-7.954101562500001E-5,44,61,72,898380,16767704,19913,8885,7180,9388,3600,2214,Tag0,unknown
1499247935516,0,-330,-7.2509765625E-5,44,61,72,898380,16767704,19913,8885,7180,9388,3600,2214,Tag0,unknown
1499247935516,0,-296,-6.50390625E-5,44,61,72,898380,16767704,19913,8885,7180,9388,3600,2214,Tag0,unknown
1499247935517,0,-262,-5.7568359375E-5,44,61,72,898380,16767704,19913,8885,7180,9388,3600,2214,Tag0,unknown
1499247935517,0,41,9.008789062499999E-6,44,61,72,898380,16767704,19913,8885,7180,9388,3600,2214,Tag0,unknown
1499247935517,0,98,2.1533203125E-5,44,61,72,898380,16767704,19913,8885,7180,9388,3600,2214,Tag0,unknown
1499247935518,0,122,2.6806640625E-5,44,61,72,898380,16767704,19913,8885,7180,9388,3600,2214,Tag0,unknown
1499247935518,0,107,2.35107421875E-5,44,61,72,898380,16767704,19913,8885,7180,9388,3600,2214,Tag0,unknown
1499247935518,0,115,2.52685546875E-5,44,61,72,898380,16767704,19913,8885,7180,9388,3600,2214,Tag0,unknown
1499247935519,0,-106,-2.3291015625000003E-5,44,61,72,898380,16767704,19913,8885,7180,9388,3600,2214,Tag0,unknown
1499247935519,0,-100,-2.197265625E-5,44,61,72,898380,16767704,19913,8885,7180,9388,3600,2214,Tag0,unknown
1499247935519,0,-123,-2.70263671875E-5,44,61,72,898380,16767704,19913,8885,7180,9388,3600,2214,Tag0,unknown
1499247935519,0,102,2.2412109374999998E-5,44,61,72,898380,16767704,19913,8885,7180,9388,3600,2214,Tag0,unknown
1499247935520,0,93,2.04345703125E-5,44,61,72,898380,16767704,19913,8885,7180,9388,3600,2214,Tag0,unknown
1499247935520,0,87,1.91162109375E-5,44,61,72,898380,16767704,19913,8885,7180,9388,3600,2214,Tag0,unknown
1499247935520,0,85,1.86767578125E-5,44,61,72,898380,16767704,19913,8885,7180,9388,3600,2214,Tag0,unknown
1499247935521,0,102,2.2412109374999998E-5,44,61,72,898380,16767704,19913,8885,7180,9388,3600,2214,Tag0,unknown
1499247935521,0,106,2.3291015625000003E-5,44,61,72,898380,16767704,19913,8885,7180,9388,3600,2214,Tag0,unknown
1499247935521,0,82,1.8017578124999998E-5,44,61,72,898380,16767704,19913,8885,7180,9388,3600,2214,Tag0,unknown
1499247935521,0,58,1.2744140625E-5,44,61,72,898380,16767704,19913,8885,7180,9388,3600,2214,Tag0,unknown
1499247935522,0,57,1.2524414062500001E-5,44,61,72,898380,16767704,19913,8885,7180,9388,3600,2214,Tag0,unknown
1499247935522,0,73,1.6040039062500002E-5,44,61,72,898380,16767704,19913,8885,7180,9388,3600,2214,Tag0,unknown
1499247935522,0,82,1.8017578124999998E-5,44,61,72,898380,16767704,19913,8885,7180,9388,3600,2214,Tag0,unknown
1499247935522,0,91,1.99951171875E-5,44,61,72,898380,16767704,19913,8885,7180,9388,3600,2214,Tag0,unknown
1499247935523,0,96,2.109375E-5,44,61,72,898380,16767704,19913,8885,7180,9388,3600,2214,Tag0,unknown
1499247935523,0,76,1.669921875E-5,44,61,72,898380,16767704,19913,8885,7180,9388,3600,2214,Tag0,unknown
1499247935523,0,56,1.23046875E-5,44,61,72,898380,16767704,19913,8885,7180,9388,3600,2214,Tag0,unknown
1499247935524,0,64,1.40625E-5,44,61,72,898380,16767704,19913,8885,7180,9388,3600,2214,Tag0,unknown
1499247935524,0,81,1.77978515625E-5,44,61,72,898380,16767704,19913,8885,7180,9388,3600,2214,Tag0,unknown
1499247935524,0,82,1.8017578124999998E-5,44,61,72,898380,16767704,19913,8885,7180,9388,3600,2214,Tag0,unknown
1499247935524,0,90,1.9775390625E-5,44,61,72,898380,16767704,19913,8885,7180,9388,3600,2214,Tag0,unknown
1499247935525,0,72,1.58203125E-5,44,61,72,898380,16767704,19913,8885,7180,9388,3600,2214,Tag0,unknown
1499247935525,0,52,1.142578125E-5,44,61,72,898380,16767704,19913,8885,7180,9388,3600,2214,Tag0,unknown
1499247935525,0,65,1.42822265625E-5,44,61,72,898380,16767704,19913,8885,7180,9388,3600,2214,Tag0,unknown
1499247935526,0,69,1.51611328125E-5,44,61,72,898380,16767704,19913,8885,7180,9388,3600,2214,Tag0,unknown
1499247935526,0,48,1.0546875E-5,44,61,72,898380,16767704,19913,8885,7180,9388,3600,2214,Tag0,unknown
1499247935526,0,27,5.9326171875000005E-6,44,61,72,898380,16767704,19913,8885,7180,9388,3600,2214,Tag0,unknown
1499247935526,0,44,9.66796875E-6,44,61,72,898380,16767704,19913,8885,7180,9388,3600,2214,Tag0,unknown
1499247935527,0,82,1.8017578124999998E-5,44,61,72,898380,16767704,19913,8885,7180,9388,3600,2214,Tag0,unknown
1499247935527,0,100,2.197265625E-5,44,61,72,898380,16767704,19913,8885,7180,9388,3600,2214,Tag0,unknown
1499247935527,0,100,2.197265625E-5,44,61,72,898380,16767704,19913,8885,7180,9388,3600,2214,Tag0,unknown
1499247935528,0,112,2.4609375E-5,44,61,72,898380,16767704,19913,8885,7180,9388,3600,2214,Tag0,unknown
1499247935528,0,118,2.5927734375E-5,44,61,72,898380,16767704,19913,8885,7180,9388,3600,2214,Tag0,unknown
1499247935528,0,124,2.724609375E-5,44,61,72,898380,16767704,19913,8885,7180,9388,3600,2214,Tag0,unknown
1499247935528,0,116,2.548828125E-5,44,61,72,898380,16767704,19913,8885,7180,9388,3600,2214,Tag0,unknown
1499247935529,0,103,2.26318359375E-5,44,61,72,898380,16767704,19913,8885,7180,9388,3600,2214,Tag0,unknown
1499247935529,0,124,2.724609375E-5,44,61,72,898380,16767704,19913,8885,7180,9388,3600,2214,Tag0,unknown
1499247935529,0,-109,-2.39501953125E-5,44,61,72,898380,16767704,19913,8885,7180,9388,3600,2214,Tag0,unknown
1499247935530,0,-120,-2.63671875E-5,44,61,72,898380,16767704,19913,8885,7180,9388,3600,2214,Tag0,unknown
1499247935530,0,117,2.5708007812499998E-5,44,61,72,898380,16767704,19913,8885,7180,9388,3600,2214,Tag0,unknown
1499247935530,0,104,2.28515625E-5,44,61,72,898380,16767704,19913,8885,7180,9388,3600,2214,Tag0,unknown
1499247935530,0,113,2.48291015625E-5,44,61,72,898380,16767704,19913,8885,7180,9388,3600,2214,Tag0,unknown
1499247935531,0,-108,-2.3730468750000002E-5,44,61,72,898380,16767704,19913,8885,7180,9388,3600,2214,Tag0,unknown
1499247935531,0,-91,-1.99951171875E-5,44,61,72,898380,16767704,19913,8885,7180,9388,3600,2214,Tag0,unknown
1499247935531,0,-99,-2.1752929687500003E-5,44,61,72,898380,16767704,19913,8885,7180,9388,3600,2214,Tag0,unknown
1499247935532,0,-109,-2.39501953125E-5,44,61,72,898380,16767704,19913,8885,7180,9388,3600,2214,Tag0,unknown
1499247935532,0,-115,-2.52685546875E-5,44,61,72,898380,16767704,19913,8885,7180,9388,3600,2214,Tag0,unknown
1499247935532,0,114,2.5048828125000003E-5,44,61,72,898380,16767704,19913,8885,7180,9388,3600,2214,Tag0,unknown
1499247935533,0,97,2.13134765625E-5,44,61,72,898380,16767704,19913,8885,7180,9388,3600,2214,Tag0,unknown
1499247935533,0,116,2.548828125E-5,44,61,72,898380,16767704,19913,8885,7180,9388,3600,2214,Tag0,unknown
1499247935533,0,-124,-2.724609375E-5,44,61,72,898380,16767704,19913,8885,7180,9388,3600,2214,Tag0,unknown
1499247935534,0,-127,-2.79052734375E-5,44,61,72,898380,16767704,19913,8885,7180,9388,3600,2214,Tag0,unknown
1499247935534,0,116,2.548828125E-5,44,61,72,898380,16767704,19913,8885,7180,9388,3600,2214,Tag0,unknown
1499247935534,0,92,2.021484375E-5,44,61,72,898380,16767704,19913,8885,7180,9388,3600,2214,Tag0,unknown
1499247935534,0,60,1.318359375E-5,44,61,72,898380,16767704,19913,8885,7180,9388,3600,2214,Tag0,unknown
1499247935535,0,22,4.833984375E-6,44,61,72,898380,16767704,19913,8885,7180,9388,3600,2214,Tag0,unknown
1499247935535,0,-261,-5.73486328125E-5,44,61,72,898380,16767704,19913,8885,7180,9388,3600,2214,Tag0,unknown
1499247935536,0,2,4.39453125E-7,44,61,72,898380,16767704,19913,8885,7180,9388,3600,2214,Tag0,unknown
1499247935536,0,37,8.1298828125E-6,44,61,72,898380,16767704,19913,8885,7180,9388,3600,2214,Tag0,unknown
1499247935536,0,65,1.42822265625E-5,44,61,72,898380,16767704,19913,8885,7180,9388,3600,2214,Tag0,unknown
1499247935537,0,80,1.7578125E-5,44,61,72,898380,16767704,19913,8885,7180,9388,3600,2214,Tag0,unknown
1499247935537,0,98,2.1533203125E-5,44,61,72,898380,16767704,19913,8885,7180,9388,3600,2214,Tag0,unknown
1499247935537,0,97,2.13134765625E-5,44,61,72,898380,16767704,19913,8885,7180,9388,3600,2214,Tag0,unknown
1499247935537,0,82,1.8017578124999998E-5,44,61,72,898380,16767704,19913,8885,7180,9388,3600,2214,Tag0,unknown
1499247935538,0,105,2.30712890625E-5,44,61,72,898380,16767704,19913,8885,7180,9388,3600,2214,Tag0,unknown
1499247935538,0,-107,-2.35107421875E-5,44,61,72,898380,16767704,19913,8885,7180,9388,3600,2214,Tag0,unknown
1499247935538,0,-85,-1.86767578125E-5,44,61,72,898380,16767704,19913,8885,7180,9388,3600,2214,Tag0,unknown
1499247935538,0,-90,-1.9775390625E-5,44,61,72,898380,16767704,19913,8885,7180,9388,3600,2214,Tag0,unknown
1499247935539,0,-111,-2.43896484375E-5,44,61,72,898380,16767704,19913,8885,7180,9388,3600,2214,Tag0,unknown
1499247935539,0,-128,-2.8125E-5,44,61,72,898380,16767704,19913,8885,7180,9388,3600,2214,Tag0,unknown
1499247935539,0,98,2.1533203125E-5,44,61,72,898380,16767704,19913,8885,7180,9388,3600,2214,Tag0,unknown
1499247935540,0,32,7.03125E-6,44,61,72,898380,16767704,19913,8885,7180,9388,3600,2214,Tag0,unknown
1499247935540,0,-268,-5.8886718750000006E-5,44,61,72,898380,16767704,19913,8885,7180,9388,3600,2214,Tag0,unknown
1499247935540,0,-259,-5.69091796875E-5,44,61,72,898380,16767704,19913,8885,7180,9388,3600,2214,Tag0,unknown
1499247935540,0,33,7.2509765625E-6,44,61,72,898380,16767704,19913,8885,7180,9388,3600,2214,Tag0,unknown
1499247935541,0,72,1.58203125E-5,44,61,72,898380,16767704,19913,8885,7180,9388,3600,2214,Tag0,unknown
1499247935541,0,84,1.8457031250000004E-5,44,61,72,898380,16767704,19913,8885,7180,9388,3600,2214,Tag0,unknown
1499247935541,0,85,1.86767578125E-5,44,61,72,898380,16767704,19913,8885,7180,9388,3600,2214,Tag0,unknown
1499247935542,0,67,1.4721679687500002E-5,44,61,72,898380,16767704,19913,8885,7180,9388,3600,2214,Tag0,unknown
1499247935542,0,36,7.91015625E-6,44,61,72,898380,16767704,19913,8885,7180,9388,3600,2214,Tag0,unknown
1499247935542,0,39,8.5693359375E-6,44,61,72,898380,16767704,19913,8885,7180,9388,3600,2214,Tag0,unknown
1499247935542,0,77,1.69189453125E-5,44,61,72,898380,16767704,19913,8885,7180,9388,3600,2214,Tag0,unknown
1499247935543,0,120,2.63671875E-5,44,61,72,898380,16767704,19913,8885,7180,9388,3600,2214,Tag0,unknown
1499247935543,0,-94,-2.0654296875000002E-5,44,61,72,898380,16767704,19913,8885,7180,9388,3600,2214,Tag0,unknown
1499247935543,0,-73,-1.6040039062500002E-5,44,61,72,898380,16767704,19913,8885,7180,9388,3600,2214,Tag0,unknown
1499247935543,0,-90,-1.9775390625E-5,44,61,72,898380,16767704,19913,8885,7180,9388,3600,2214,Tag0,unknown
1499247935544,0,117,2.5708007812499998E-5,44,61,72,898380,16767704,19913,8885,7180,9388,3600,2214,Tag0,unknown
1499247935544,0,118,2.5927734375E-5,44,61,72,898380,16767704,19913,8885,7180,9388,3600,2214,Tag0,unknown
1499247935544,0,-94,-2.0654296875000002E-5,44,61,72,898380,16767704,19913,8885,7180,9388,3600,2214,Tag0,unknown
1499247935545,0,-62,-1.3623046875E-5,44,61,72,898380,16767704,19913,8885,7180,9388,3600,2214,Tag0,unknown
1499247935545,0,-58,-1.2744140625E-5,44,61,72,898380,16767704,19913,8885,7180,9388,3600,2214,Tag0,unknown
1499247935545,0,-70,-1.5380859375E-5,44,61,72,898380,16767704,19913,8885,7180,9388,3600,2214,Tag0,unknown
1499247935546,0,-89,-1.95556640625E-5,44,61,72,898380,16767704,19913,8885,7180,9388,3600,2214,Tag0,unknown
1499247935546,0,-109,-2.39501953125E-5,44,61,72,898380,16767704,19913,8885,7180,9388,3600,2214,Tag0,unknown
1499247935547,0,115,2.52685546875E-5,44,61,72,898380,16767704,19913,8885,7180,9388,3600,2214,Tag0,unknown
1499247935547,0,84,1.8457031250000004E-5,44,61,72,898380,16767704,19913,8885,7180,9388,3600,2214,Tag0,unknown
1499247935547,0,92,2.021484375E-5,44,61,72,898380,16767704,19913,8885,7180,9388,3600,2214,Tag0,unknown
1499247935547,0,-118,-2.5927734375E-5,44,61,72,898380,16767704,19913,8885,7180,9388,3600,2214,Tag0,unknown
1499247935548,0,-95,-2.08740234375E-5,44,61,72,898380,16767704,19913,8885,7180,9388,3600,2214,Tag0,unknown
1499247935548,0,-94,-2.0654296875000002E-5,44,61,72,898380,16767704,19913,8885,7180,9388,3600,2214,Tag0,unknown
1499247935548,0,-90,-1.9775390625E-5,44,61,72,898380,16767704,19913,8885,7180,9388,3600,2214,Tag0,unknown
1499247935549,0,-95,-2.08740234375E-5,44,61,72,898380,16767704,19913,8885,7180,9388,3600,2214,Tag0,unknown
1499247935549,0,-94,-2.0654296875000002E-5,44,61,72,898380,16767704,19913,8885,7180,9388,3600,2214,Tag0,unknown
1499247935549,0,-68,-1.4941406250000001E-5,44,61,72,898380,16767704,19913,8885,7180,9388,3600,2214,Tag0,unknown
1499247935549,0,-51,-1.1206054687499999E-5,44,61,72,898380,16767704,19913,8885,7180,9388,3600,2214,Tag0,unknown
1499247935550,0,-58,-1.2744140625E-5,44,61,72,898380,16767704,19913,8885,7180,9388,3600,2214,Tag0,unknown
1499247935550,0,-77,-1.69189453125E-5,44,61,72,898380,16767704,19913,8885,7180,9388,3600,2214,Tag0,unknown
1499247935550,0,-91,-1.99951171875E-5,44,61,72,898380,16767704,19913,8885,7180,9388,3600,2214,Tag0,unknown
1499247935551,0,-93,-2.04345703125E-5,44,61,72,898380,16767704,19913,8885,7180,9388,3600,2214,Tag0,unknown
1499247935551,0,-73,-1.6040039062500002E-5,44,61,72,898380,16767704,19913,8885,7180,9388,3600,2214,Tag0,unknown
1499247935551,0,-61,-1.34033203125E-5,44,61,72,898380,16767704,19913,8885,7180,9388,3600,2214,Tag0,unknown
1499247935551,0,-84,-1.8457031250000004E-5,44,61,72,898380,16767704,19913,8885,7180,9388,3600,2214,Tag0,unknown
1499247935569,0,-116,-2.548828125E-5,37,80,72,1031282,16750524,26969,28659,8544,9373,4275,775,Tag0,unknown
1499247935569,0,-124,-2.724609375E-5,37,80,72,1031282,16750524,26969,28659,8544,9373,4275,775,Tag0,unknown
1499247935570,0,-102,-2.2412109374999998E-5,37,80,72,1031282,16750524,26969,28659,8544,9373,4275,775,Tag0,unknown
1499247935570,0,-70,-1.5380859375E-5,37,80,72,1031282,16750524,26969,28659,8544,9373,4275,775,Tag0,unknown
1499247935570,0,-72,-1.58203125E-5,37,80,72,1031282,16750524,26969,28659,8544,9373,4275,775,Tag0,unknown
1499247935570,0,-103,-2.26318359375E-5,37,80,72,1031282,16750524,26969,28659,8544,9373,4275,775,Tag0,unknown
1499247935570,0,108,2.3730468750000002E-5,37,80,72,1031282,16750524,26969,28659,8544,9373,4275,775,Tag0,unknown
1499247935571,0,76,1.669921875E-5,37,80,72,1031282,16750524,26969,28659,8544,9373,4275,775,Tag0,unknown
1499247935571,0,89,1.95556640625E-5,37,80,72,1031282,16750524,26969,28659,8544,9373,4275,775,Tag0,unknown
1499247935571,0,107,2.35107421875E-5,37,80,72,1031282,16750524,26969,28659,8544,9373,4275,775,Tag0,unknown
1499247935571,0,115,2.52685546875E-5,37,80,72,1031282,16750524,26969,28659,8544,9373,4275,775,Tag0,unknown
1499247935571,0,120,2.63671875E-5,37,80,72,1031282,16750524,26969,28659,8544,9373,4275,775,Tag0,unknown
1499247935572,0,-128,-2.8125E-5,37,80,72,1031282,16750524,26969,28659,8544,9373,4275,775,Tag0,unknown
1499247935572,0,116,2.548828125E-5,37,80,72,1031282,16750524,26969,28659,8544,9373,4275,775,Tag0,unknown
1499247935572,0,100,2.197265625E-5,37,80,72,1031282,16750524,26969,28659,8544,9373,4275,775,Tag0,unknown
1499247935572,0,90,1.9775390625E-5,37,80,72,1031282,16750524,26969,28659,8544,9373,4275,775,Tag0,unknown
1499247935573,0,91,1.99951171875E-5,37,80,72,1031282,16750524,26969,28659,8544,9373,4275,775,Tag0,unknown
1499247935573,0,97,2.13134765625E-5,37,80,72,1031282,16750524,26969,28659,8544,9373,4275,775,Tag0,unknown
1499247935573,0,80,1.7578125E-5,37,80,72,1031282,16750524,26969,28659,8544,9373,4275,775,Tag0,unknown
1499247935573,0,59,1.29638671875E-5,37,80,72,1031282,16750524,26969,28659,8544,9373,4275,775,Tag0,unknown
1499247935573,0,51,1.1206054687499999E-5,37,80,72,1031282,16750524,26969,28659,8544,9373,4275,775,Tag0,unknown
1499247935574,0,43,9.448242187500001E-6,37,80,72,1031282,16750524,26969,28659,8544,9373,4275,775,Tag0,unknown
1499247935574,0,49,1.07666015625E-5,37,80,72,1031282,16750524,26969,28659,8544,9373,4275,775,Tag0,unknown
1499247935574,0,57,1.2524414062500001E-5,37,80,72,1031282,16750524,26969,28659,8544,9373,4275,775,Tag0,unknown
1499247935574,0,58,1.2744140625E-5,37,80,72,1031282,16750524,26969,28659,8544,9373,4275,775,Tag0,unknown
1499247935574,0,52,1.142578125E-5,37,80,72,1031282,16750524,26969,28659,8544,9373,4275,775,Tag0,unknown
1499247935575,0,56,1.23046875E-5,37,80,72,1031282,16750524,26969,28659,8544,9373,4275,775,Tag0,unknown
1499247935575,0,100,2.197265625E-5,37,80,72,1031282,16750524,26969,28659,8544,9373,4275,775,Tag0,unknown
1499247935575,0,-115,-2.52685546875E-5,37,80,72,1031282,16750524,26969,28659,8544,9373,4275,775,Tag0,unknown
1499247935575,0,-103,-2.26318359375E-5,37,80,72,1031282,16750524,26969,28659,8544,9373,4275,775,Tag0,unknown
1499247935576,0,119,2.6147460937500004E-5,37,80,72,1031282,16750524,26969,28659,8544,9373,4275,775,Tag0,unknown
1499247935576,0,58,1.2744140625E-5,37,80,72,1031282,16750524,26969,28659,8544,9373,4275,775,Tag0,unknown
1499247935576,0,20,4.39453125E-6,37,80,72,1031282,16750524,26969,28659,8544,9373,4275,775,Tag0,unknown
1499247935577,0,10,2.197265625E-6,37,80,72,1031282,16750524,26969,28659,8544,9373,4275,775,Tag0,unknown
1499247935577,0,24,5.2734375E-6,37,80,72,1031282,16750524,26969,28659,8544,9373,4275,775,Tag0,unknown
1499247935577,0,35,7.6904296875E-6,37,80,72,1031282,16750524,26969,28659,8544,9373,4275,775,Tag0,unknown
1499247935577,0,38,8.349609375E-6,37,80,72,1031282,16750524,26969,28659,8544,9373,4275,775,Tag0,unknown
1499247935578,0,34,7.4707031250000005E-6,37,80,72,1031282,16750524,26969,28659,8544,9373,4275,775,Tag0,unknown
1499247935578,0,38,8.349609375E-6,37,80,72,1031282,16750524,26969,28659,8544,9373,4275,775,Tag0,unknown
1499247935578,0,48,1.0546875E-5,37,80,72,1031282,16750524,26969,28659,8544,9373,4275,775,Tag0,unknown
1499247935578,0,54,1.1865234375000001E-5,37,80,72,1031282,16750524,26969,28659,8544,9373,4275,775,Tag0,unknown
1499247935578,0,55,1.20849609375E-5,37,80,72,1031282,16750524,26969,28659,8544,9373,4275,775,Tag0,unknown
1499247935579,0,42,9.228515625000002E-6,37,80,72,1031282,16750524,26969,28659,8544,9373,4275,775,Tag0,unknown
1499247935579,0,37,8.1298828125E-6,37,80,72,1031282,16750524,26969,28659,8544,9373,4275,775,Tag0,unknown
1499247935579,0,33,7.2509765625E-6,37,80,72,1031282,16750524,26969,28659,8544,9373,4275,775,Tag0,unknown
1499247935579,0,33,7.2509765625E-6,37,80,72,1031282,16750524,26969,28659,8544,9373,4275,775,Tag0,unknown
1499247935579,0,27,5.9326171875000005E-6,37,80,72,1031282,16750524,26969,28659,8544,9373,4275,775,Tag0,unknown
1499247935580,0,23,5.0537109375E-6,37,80,72,1031282,16750524,26969,28659,8544,9373,4275,775,Tag0,unknown
1499247935580,0,18,3.955078125E-6,37,80,72,1031282,16750524,26969,28659,8544,9373,4275,775,Tag0,unknown
1499247935580,0,4,8.7890625E-7,37,80,72,1031282,16750524,26969,28659,8544,9373,4275,775,Tag0,unknown
1499247935580,0,20,4.39453125E-6,37,80,72,1031282,16750524,26969,28659,8544,9373,4275,775,Tag0,unknown
1499247935580,0,58,1.2744140625E-5,37,80,72,1031282,16750524,26969,28659,8544,9373,4275,775,Tag0,unknown
1499247935581,0,66,1.4501953125E-5,37,80,72,1031282,16750524,26969,28659,8544,9373,4275,775,Tag0,unknown
1499247935581,0,42,9.228515625000002E-6,37,80,72,1031282,16750524,26969,28659,8544,9373,4275,775,Tag0,unknown
1499247935581,0,50,1.0986328125E-5,37,80,72,1031282,16750524,26969,28659,8544,9373,4275,775,Tag0,unknown
1499247935581,0,69,1.51611328125E-5,37,80,72,1031282,16750524,26969,28659,8544,9373,4275,775,Tag0,unknown
1499247935581,0,71,1.56005859375E-5,37,80,72,1031282,16750524,26969,28659,8544,9373,4275,775,Tag0,unknown
1499247935582,0,67,1.4721679687500002E-5,37,80,72,1031282,16750524,26969,28659,8544,9373,4275,775,Tag0,unknown
1499247935582,0,49,1.07666015625E-5,37,80,72,1031282,16750524,26969,28659,8544,9373,4275,775,Tag0,unknown
1499247935582,0,24,5.2734375E-6,37,80,72,1031282,16750524,26969,28659,8544,9373,4275,775,Tag0,unknown
1499247935582,0,-266,-5.8447265625E-5,37,80,72,1031282,16750524,26969,28659,8544,9373,4275,775,Tag0,unknown
1499247935583,0,-290,-6.3720703125E-5,37,80,72,1031282,16750524,26969,28659,8544,9373,4275,775,Tag0,unknown
1499247935583,0,-290,-6.3720703125E-5,37,80,72,1031282,16750524,26969,28659,8544,9373,4275,775,Tag0,unknown
1499247935583,0,-292,-6.416015625000001E-5,37,80,72,1031282,16750524,26969,28659,8544,9373,4275,775,Tag0,unknown
1499247935583,0,-312,-6.85546875E-5,37,80,72,1031282,16750524,26969,28659,8544,9373,4275,775,Tag0,unknown
1499247935583,0,-332,-7.294921875E-5,37,80,72,1031282,16750524,26969,28659,8544,9373,4275,775,Tag0,unknown
1499247935584,0,-334,-7.338867187500001E-5,37,80,72,1031282,16750524,26969,28659,8544,9373,4275,775,Tag0,unknown
1499247935584,0,-325,-7.14111328125E-5,37,80,72,1031282,16750524,26969,28659,8544,9373,4275,775,Tag0,unknown
1499247935584,0,-311,-6.833496093750001E-5,37,80,72,1031282,16750524,26969,28659,8544,9373,4275,775,Tag0,unknown
1499247935584,0,-276,-6.064453125E-5,37,80,72,1031282,16750524,26969,28659,8544,9373,4275,775,Tag0,unknown
1499247935584,0,4,8.7890625E-7,37,80,72,1031282,16750524,26969,28659,8544,9373,4275,775,Tag0,unknown
1499247935585,0,18,3.955078125E-6,37,80,72,1031282,16750524,26969,28659,8544,9373,4275,775,Tag0,unknown
1499247935585,0,22,4.833984375E-6,37,80,72,1031282,16750524,26969,28659,8544,9373,4275,775,Tag0,unknown
1499247935585,0,48,1.0546875E-5,37,80,72,1031282,16750524,26969,28659,8544,9373,4275,775,Tag0,unknown
1499247935586,0,64,1.40625E-5,37,80,72,1031282,16750524,26969,28659,8544,9373,4275,775,Tag0,unknown
1499247935586,0,56,1.23046875E-5,37,80,72,1031282,16750524,26969,28659,8544,9373,4275,775,Tag0,unknown
1499247935586,0,52,1.142578125E-5,37,80,72,1031282,16750524,26969,28659,8544,9373,4275,775,Tag0,unknown
1499247935586,0,66,1.4501953125E-5,37,80,72,1031282,16750524,26969,28659,8544,9373,4275,775,Tag0,unknown
1499247935587,0,84,1.8457031250000004E-5,37,80,72,1031282,16750524,26969,28659,8544,9373,4275,775,Tag0,unknown
1499247935587,0,89,1.95556640625E-5,37,80,72,1031282,16750524,26969,28659,8544,9373,4275,775,Tag0,unknown
1499247935587,0,98,2.1533203125E-5,37,80,72,1031282,16750524,26969,28659,8544,9373,4275,775,Tag0,unknown
1499247935587,0,102,2.2412109374999998E-5,37,80,72,1031282,16750524,26969,28659,8544,9373,4275,775,Tag0,unknown
1499247935587,0,90,1.9775390625E-5,37,80,72,1031282,16750524,26969,28659,8544,9373,4275,775,Tag0,unknown
1499247935588,0,56,1.23046875E-5,37,80,72,1031282,16750524,26969,28659,8544,9373,4275,775,Tag0,unknown
1499247935588,0,28,6.15234375E-6,37,80,72,1031282,16750524,26969,28659,8544,9373,4275,775,Tag0,unknown
1499247935588,0,34,7.4707031250000005E-6,37,80,72,1031282,16750524,26969,28659,8544,9373,4275,775,Tag0,unknown
1499247935588,0,54,1.1865234375000001E-5,37,80,72,1031282,16750524,26969,28659,8544,9373,4275,775,Tag0,unknown
1499247935588,0,58,1.2744140625E-5,37,80,72,1031282,16750524,26969,28659,8544,9373,4275,775,Tag0,unknown
1499247935589,0,67,1.4721679687500002E-5,37,80,72,1031282,16750524,26969,28659,8544,9373,4275,775,Tag0,unknown
1499247935589,0,85,1.86767578125E-5,37,80,72,1031282,16750524,26969,28659,8544,9373,4275,775,Tag0,unknown
1499247935589,0,116,2.548828125E-5,37,80,72,1031282,16750524,26969,28659,8544,9373,4275,775,Tag0,unknown
1499247935590,0,-122,-2.6806640625E-5,37,80,72,1031282,16750524,26969,28659,8544,9373,4275,775,Tag0,unknown
1499247935590,0,-124,-2.724609375E-5,37,80,72,1031282,16750524,26969,28659,8544,9373,4275,775,Tag0,unknown
1499247935590,0,-126,-2.7685546875E-5,37,80,72,1031282,16750524,26969,28659,8544,9373,4275,775,Tag0,unknown
1499247935590,0,-110,-2.4169921875E-5,37,80,72,1031282,16750524,26969,28659,8544,9373,4275,775,Tag0,unknown
1499247935590,0,-93,-2.04345703125E-5,37,80,72,1031282,16750524,26969,28659,8544,9373,4275,775,Tag0,unknown
1499247935591,0,-106,-2.3291015625000003E-5,37,80,72,1031282,16750524,26969,28659,8544,9373,4275,775,Tag0,unknown
1499247935591,0,-126,-2.7685546875E-5,37,80,72,1031282,16750524,26969,28659,8544,9373,4275,775,Tag0,unknown
1499247935591,0,-124,-2.724609375E-5,37,80,72,1031282,16750524,26969,28659,8544,9373,4275,775,Tag0,unknown
1499247935591,0,-117,-2.5708007812499998E-5,37,80,72,1031282,16750524,26969,28659,8544,9373,4275,775,Tag0,unknown
1499247935591,0,-121,-2.6586914062500003E-5,37,80,72,1031282,16750524,26969,28659,8544,9373,4275,775,Tag0,unknown
1499247935592,0,-106,-2.3291015625000003E-5,37,80,72,1031282,16750524,26969,28659,8544,9373,4275,775,Tag0,unknown
1499247935592,0,-95,-2.08740234375E-5,37,80,72,1031282,16750524,26969,28659,8544,9373,4275,775,Tag0,unknown
1499247935592,0,-103,-2.26318359375E-5,37,80,72,1031282,16750524,26969,28659,8544,9373,4275,775,Tag0,unknown
1499247935592,0,-103,-2.26318359375E-5,37,80,72,1031282,16750524,26969,28659,8544,9373,4275,775,Tag0,unknown
1499247935592,0,-91,-1.99951171875E-5,37,80,72,1031282,16750524,26969,28659,8544,9373,4275,775,Tag0,unknown
1499247935593,0,-95,-2.08740234375E-5,37,80,72,1031282,16750524,26969,28659,8544,9373,4275,775,Tag0,unknown
1499247935593,0,-104,-2.28515625E-5,37,80,72,1031282,16750524,26969,28659,8544,9373,4275,775,Tag0,unknown
1499247935593,0,-106,-2.3291015625000003E-5,37,80,72,1031282,16750524,26969,28659,8544,9373,4275,775,Tag0,unknown
1499247935593,0,-123,-2.70263671875E-5,37,80,72,1031282,16750524,26969,28659,8544,9373,4275,775,Tag0,unknown
1499247935593,0,112,2.4609375E-5,37,80,72,1031282,16750524,26969,28659,8544,9373,4275,775,Tag0,unknown
1499247935594,0,102,2.2412109374999998E-5,37,80,72,1031282,16750524,26969,28659,8544,9373,4275,775,Tag0,unknown
1499247935594,0,105,2.30712890625E-5,37,80,72,1031282,16750524,26969,28659,8544,9373,4275,775,Tag0,unknown
1499247935594,0,100,2.197265625E-5,37,80,72,1031282,16750524,26969,28659,8544,9373,4275,775,Tag0,unknown
1499247935594,0,86,1.8896484375000003E-5,37,80,72,1031282,16750524,26969,28659,8544,9373,4275,775,Tag0,unknown
1499247935594,0,93,2.04345703125E-5,37,80,72,1031282,16750524,26969,28659,8544,9373,4275,775,Tag0,unknown
1499247935595,0,100,2.197265625E-5,37,80,72,1031282,16750524,26969,28659,8544,9373,4275,775,Tag0,unknown
1499247935595,0,98,2.1533203125E-5,37,80,72,1031282,16750524,26969,28659,8544,9373,4275,775,Tag0,unknown
1499247935595,0,87,1.91162109375E-5,37,80,72,1031282,16750524,26969,28659,8544,9373,4275,775,Tag0,unknown
1499247935595,0,80,1.7578125E-5,37,80,72,1031282,16750524,26969,28659,8544,9373,4275,775,Tag0,unknown
1499247935598,0,84,1.8457031250000004E-5,37,80,72,1031282,16750524,26969,28659,8544,9373,4275,775,Tag0,unknown
1499247935598,0,75,1.64794921875E-5,37,80,72,1031282,16750524,26969,28659,8544,9373,4275,775,Tag0,unknown
1499247935599,0,59,1.29638671875E-5,37,80,72,1031282,16750524,26969,28659,8544,9373,4275,775,Tag0,unknown
1499247935600,0,51,1.1206054687499999E-5,37,80,72,1031282,16750524,26969,28659,8544,9373,4275,775,Tag0,unknown
1499247935600,0,59,1.29638671875E-5,37,80,72,1031282,16750524,26969,28659,8544,9373,4275,775,Tag0,unknown
1499247935601,0,58,1.2744140625E-5,37,80,72,1031282,16750524,26969,28659,8544,9373,4275,775,Tag0,unknown
1499247935601,0,39,8.5693359375E-6,37,80,72,1031282,16750524,26969,28659,8544,9373,4275,775,Tag0,unknown
1499247935601,0,55,1.20849609375E-5,37,80,72,1031282,16750524,26969,28659,8544,9373,4275,775,Tag0,unknown
1499247935601,0,85,1.86767578125E-5,37,80,72,1031282,16750524,26969,28659,8544,9373,4275,775,Tag0,unknown
1499247935602,0,90,1.9775390625E-5,37,80,72,1031282,16750524,26969,28659,8544,9373,4275,775,Tag0,unknown
1499247935602,0,67,1.4721679687500002E-5,37,80,72,1031282,16750524,26969,28659,8544,9373,4275,775,Tag0,unknown
1499247935602,0,48,1.0546875E-5,37,80,72,1031282,16750524,26969,28659,8544,9373,4275,775,Tag0,unknown
1499247935602,0,54,1.1865234375000001E-5,37,80,72,1031282,16750524,26969,28659,8544,9373,4275,775,Tag0,unknown
1499247935602,0,88,1.93359375E-5,37,80,72,1031282,16750524,26969,28659,8544,9373,4275,775,Tag0,unknown
1499247935602,0,113,2.48291015625E-5,37,80,72,1031282,16750524,26969,28659,8544,9373,4275,775,Tag0,unknown
1499247935603,0,102,2.2412109374999998E-5,37,80,72,1031282,16750524,26969,28659,8544,9373,4275,775,Tag0,unknown
1499247935603,0,71,1.56005859375E-5,37,80,72,1031282,16750524,26969,28659,8544,9373,4275,775,Tag0,unknown
1499247935603,0,50,1.0986328125E-5,37,80,72,1031282,16750524,26969,28659,8544,9373,4275,775,Tag0,unknown
1499247935603,0,42,9.228515625000002E-6,37,80,72,1031282,16750524,26969,28659,8544,9373,4275,775,Tag0,unknown
1499247935603,0,64,1.40625E-5,37,80,72,1031282,16750524,26969,28659,8544,9373,4275,775,Tag0,unknown
1499247935604,0,81,1.77978515625E-5,37,80,72,1031282,16750524,26969,28659,8544,9373,4275,775,Tag0,unknown
1499247935604,0,84,1.8457031250000004E-5,37,80,72,1031282,16750524,26969,28659,8544,9373,4275,775,Tag0,unknown
1499247935604,0,100,2.197265625E-5,37,80,72,1031282,16750524,26969,28659,8544,9373,4275,775,Tag0,unknown
1499247935604,0,124,2.724609375E-5,37,80,72,1031282,16750524,26969,28659,8544,9373,4275,775,Tag0,unknown
1499247935604,0,119,2.6147460937500004E-5,37,80,72,1031282,16750524,26969,28659,8544,9373,4275,775,Tag0,unknown
1499247935604,0,97,2.13134765625E-5,37,80,72,1031282,16750524,26969,28659,8544,9373,4275,775,Tag0,unknown
1499247935605,0,68,1.4941406250000001E-5,37,80,72,1031282,16750524,26969,28659,8544,9373,4275,775,Tag0,unknown
1499247935605,0,36,7.91015625E-6,37,80,72,1031282,16750524,26969,28659,8544,9373,4275,775,Tag0,unknown
1499247935605,0,41,9.008789062499999E-6,37,80,72,1031282,16750524,26969,28659,8544,9373,4275,775,Tag0,unknown
1499247935605,0,65,1.42822265625E-5,37,80,72,1031282,16750524,26969,28659,8544,9373,4275,775,Tag0,unknown
1499247935605,0,68,1.4941406250000001E-5,37,80,72,1031282,16750524,26969,28659,8544,9373,4275,775,Tag0,unknown
1499247935606,0,41,9.008789062499999E-6,37,80,72,1031282,16750524,26969,28659,8544,9373,4275,775,Tag0,unknown
1499247935606,0,18,3.955078125E-6,37,80,72,1031282,16750524,26969,28659,8544,9373,4275,775,Tag0,unknown
1499247935606,0,13,2.8564453125E-6,37,80,72,1031282,16750524,26969,28659,8544,9373,4275,775,Tag0,unknown
1499247935606,0,50,1.0986328125E-5,37,80,72,1031282,16750524,26969,28659,8544,9373,4275,775,Tag0,unknown
1499247935606,0,85,1.86767578125E-5,37,80,72,1031282,16750524,26969,28659,8544,9373,4275,775,Tag0,unknown
1499247935607,0,92,2.021484375E-5,37,80,72,1031282,16750524,26969,28659,8544,9373,4275,775,Tag0,unknown
1499247935607,0,76,1.669921875E-5,37,80,72,1031282,16750524,26969,28659,8544,9373,4275,775,Tag0,unknown
1499247935607,0,54,1.1865234375000001E-5,37,80,72,1031282,16750524,26969,28659,8544,9373,4275,775,Tag0,unknown
1499247935607,0,44,9.66796875E-6,37,80,72,1031282,16750524,26969,28659,8544,9373,4275,775,Tag0,unknown
1499247935607,0,44,9.66796875E-6,37,80,72,1031282,16750524,26969,28659,8544,9373,4275,775,Tag0,unknown
1499247935607,0,71,1.56005859375E-5,37,80,72,1031282,16750524,26969,28659,8544,9373,4275,775,Tag0,unknown
1499247935608,0,89,1.95556640625E-5,37,80,72,1031282,16750524,26969,28659,8544,9373,4275,775,Tag0,unknown
1499247935608,0,86,1.8896484375000003E-5,37,80,72,1031282,16750524,26969,28659,8544,9373,4275,775,Tag0,unknown
1499247935608,0,82,1.8017578124999998E-5,37,80,72,1031282,16750524,26969,28659,8544,9373,4275,775,Tag0,unknown
1499247935608,0,85,1.86767578125E-5,37,80,72,1031282,16750524,26969,28659,8544,9373,4275,775,Tag0,unknown
1499247935609,0,89,1.95556640625E-5,37,80,72,1031282,16750524,26969,28659,8544,9373,4275,775,Tag0,unknown
1499247935609,0,76,1.669921875E-5,37,80,72,1031282,16750524,26969,28659,8544,9373,4275,775,Tag0,unknown
1499247935609,0,60,1.318359375E-5,37,80,72,1031282,16750524,26969,28659,8544,9373,4275,775,Tag0,unknown
1499247935609,0,72,1.58203125E-5,37,80,72,1031282,16750524,26969,28659,8544,9373,4275,775,Tag0,unknown
1499247935609,0,100,2.197265625E-5,37,80,72,1031282,16750524,26969,28659,8544,9373,4275,775,Tag0,unknown
1499247935609,0,105,2.30712890625E-5,37,80,72,1031282,16750524,26969,28659,8544,9373,4275,775,Tag0,unknown
1499247935610,0,113,2.48291015625E-5,37,80,72,1031282,16750524,26969,28659,8544,9373,4275,775,Tag0,unknown
1499247935610,0,124,2.724609375E-5,37,80,72,1031282,16750524,26969,28659,8544,9373,4275,775,Tag0,unknown
1499247935610,0,-124,-2.724609375E-5,37,80,72,1031282,16750524,26969,28659,8544,9373,4275,775,Tag0,unknown
1499247935610,0,124,2.724609375E-5,37,80,72,1031282,16750524,26969,28659,8544,9373,4275,775,Tag0,unknown
1499247935610,0,107,2.35107421875E-5,37,80,72,1031282,16750524,26969,28659,8544,9373,4275,775,Tag0,unknown
1499247935611,0,87,1.91162109375E-5,37,80,72,1031282,16750524,26969,28659,8544,9373,4275,775,Tag0,unknown
1499247935611,0,88,1.93359375E-5,37,80,72,1031282,16750524,26969,28659,8544,9373,4275,775,Tag0,unknown
1499247935611,0,106,2.3291015625000003E-5,37,80,72,1031282,16750524,26969,28659,8544,9373,4275,775,Tag0,unknown
1499247935611,0,122,2.6806640625E-5,37,80,72,1031282,16750524,26969,28659,8544,9373,4275,775,Tag0,unknown
1499247935611,0,112,2.4609375E-5,37,80,72,1031282,16750524,26969,28659,8544,9373,4275,775,Tag0,unknown
1499247935612,0,77,1.69189453125E-5,37,80,72,1031282,16750524,26969,28659,8544,9373,4275,775,Tag0,unknown
1499247935612,0,33,7.2509765625E-6,37,80,72,1031282,16750524,26969,28659,8544,9373,4275,775,Tag0,unknown
1499247935612,0,8,1.7578125E-6,37,80,72,1031282,16750524,26969,28659,8544,9373,4275,775,Tag0,unknown
1499247935612,0,32,7.03125E-6,37,80,72,1031282,16750524,26969,28659,8544,9373,4275,775,Tag0,unknown
1499247935612,0,49,1.07666015625E-5,37,80,72,1031282,16750524,26969,28659,8544,9373,4275,775,Tag0,unknown
1499247935612,0,36,7.91015625E-6,37,80,72,1031282,16750524,26969,28659,8544,9373,4275,775,Tag0,unknown
1499247935613,0,27,5.9326171875000005E-6,37,80,72,1031282,16750524,26969,28659,8544,9373,4275,775,Tag0,unknown
1499247935613,0,41,9.008789062499999E-6,37,80,72,1031282,16750524,26969,28659,8544,9373,4275,775,Tag0,unknown
1499247935613,0,33,7.2509765625E-6,37,80,72,1031282,16750524,26969,28659,8544,9373,4275,775,Tag0,unknown
1499247935613,0,8,1.7578125E-6,37,80,72,1031282,16750524,26969,28659,8544,9373,4275,775,Tag0,unknown
1499247935613,0,23,5.0537109375E-6,37,80,72,1031282,16750524,26969,28659,8544,9373,4275,775,Tag0,unknown
1499247935613,0,53,1.1645507812500002E-5,37,80,72,1031282,16750524,26969,28659,8544,9373,4275,775,Tag0,unknown
1499247935614,0,66,1.4501953125E-5,37,80,72,1031282,16750524,26969,28659,8544,9373,4275,775,Tag0,unknown
1499247935614,0,68,1.4941406250000001E-5,37,80,72,1031282,16750524,26969,28659,8544,9373,4275,775,Tag0,unknown
1499247935614,0,70,1.5380859375E-5,37,80,72,1031282,16750524,26969,28659,8544,9373,4275,775,Tag0,unknown
1499247935614,0,72,1.58203125E-5,37,80,72,1031282,16750524,26969,28659,8544,9373,4275,775,Tag0,unknown
1499247935614,0,67,1.4721679687500002E-5,37,80,72,1031282,16750524,26969,28659,8544,9373,4275,775,Tag0,unknown
1499247935615,0,59,1.29638671875E-5,37,80,72,1031282,16750524,26969,28659,8544,9373,4275,775,Tag0,unknown
1499247935615,0,58,1.2744140625E-5,37,80,72,1031282,16750524,26969,28659,8544,9373,4275,775,Tag0,unknown
1499247935615,0,64,1.40625E-5,37,80,72,1031282,16750524,26969,28659,8544,9373,4275,775,Tag0,unknown
1499247935615,0,71,1.56005859375E-5,37,80,72,1031282,16750524,26969,28659,8544,9373,4275,775,Tag0,unknown
1499247935615,0,73,1.6040039062500002E-5,37,80,72,1031282,16750524,26969,28659,8544,9373,4275,775,Tag0,unknown
1499247935616,0,60,1.318359375E-5,37,80,72,1031282,16750524,26969,28659,8544,9373,4275,775,Tag0,unknown
1499247935616,0,40,8.7890625E-6,37,80,72,1031282,16750524,26969,28659,8544,9373,4275,775,Tag0,unknown
1499247935616,0,38,8.349609375E-6,37,80,72,1031282,16750524,26969,28659,8544,9373,4275,775,Tag0,unknown
1499247935616,0,25,5.4931640625E-6,37,80,72,1031282,16750524,26969,28659,8544,9373,4275,775,Tag0,unknown
1499247935616,0,6,1.318359375E-6,37,80,72,1031282,16750524,26969,28659,8544,9373,4275,775,Tag0,unknown
1499247935617,0,0,0.0,37,80,72,1031282,16750524,26969,28659,8544,9373,4275,775,Tag0,unknown
1499247935617,0,-261,-5.73486328125E-5,37,80,72,1031282,16750524,26969,28659,8544,9373,4275,775,Tag0,unknown
1499247935617,0,-263,-5.7788085937500005E-5,37,80,72,1031282,16750524,26969,28659,8544,9373,4275,775,Tag0,unknown
1499247935617,0,-262,-5.7568359375E-5,37,80,72,1031282,16750524,26969,28659,8544,9373,4275,775,Tag0,unknown
1499247935617,0,3,6.591796875E-7,37,80,72,1031282,16750524,26969,28659,8544,9373,4275,775,Tag0,unknown
1499247935617,0,8,1.7578125E-6,37,80,72,1031282,16750524,26969,28659,8544,9373,4275,775,Tag0,unknown
1499247935618,0,-264,-5.80078125E-5,37,80,72,1031282,16750524,26969,28659,8544,9373,4275,775,Tag0,unknown
1499247935618,0,-276,-6.064453125E-5,37,80,72,1031282,16750524,26969,28659,8544,9373,4275,775,Tag0,unknown
1499247935618,0,-263,-5.7788085937500005E-5,37,80,72,1031282,16750524,26969,28659,8544,9373,4275,775,Tag0,unknown
1499247935618,0,-260,-5.712890625E-5,37,80,72,1031282,16750524,26969,28659,8544,9373,4275,775,Tag0,unknown
1499247935618,0,-266,-5.8447265625E-5,37,80,72,1031282,16750524,26969,28659,8544,9373,4275,775,Tag0,unknown
1499247935619,0,-264,-5.80078125E-5,37,80,72,1031282,16750524,26969,28659,8544,9373,4275,775,Tag0,unknown
1499247935619,0,-268,-5.8886718750000006E-5,37,80,72,1031282,16750524,26969,28659,8544,9373,4275,775,Tag0,unknown
1499247935619,0,-267,-5.86669921875E-5,37,80,72,1031282,16750524,26969,28659,8544,9373,4275,775,Tag0,unknown
1499247935619,0,-275,-6.04248046875E-5,37,80,72,1031282,16750524,26969,28659,8544,9373,4275,775,Tag0,unknown
1499247935619,0,-279,-6.13037109375E-5,37,80,72,1031282,16750524,26969,28659,8544,9373,4275,775,Tag0,unknown
1499247935619,0,-275,-6.04248046875E-5,37,80,72,1031282,16750524,26969,28659,8544,9373,4275,775,Tag0,unknown
1499247935620,0,-263,-5.7788085937500005E-5,37,80,72,1031282,16750524,26969,28659,8544,9373,4275,775,Tag0,unknown
1499247935620,0,1,2.197265625E-7,37,80,72,1031282,16750524,26969,28659,8544,9373,4275,775,Tag0,unknown
1499247935620,0,-263,-5.7788085937500005E-5,37,80,72,1031282,16750524,26969,28659,8544,9373,4275,775,Tag0,unknown
1499247935620,0,-274,-6.0205078124999997E-5,37,80,72,1031282,16750524,26969,28659,8544,9373,4275,775,Tag0,unknown
1499247935620,0,-264,-5.80078125E-5,37,80,72,1031282,16750524,26969,28659,8544,9373,4275,775,Tag0,unknown
1499247935621,0,18,3.955078125E-6,37,80,72,1031282,16750524,26969,28659,8544,9373,4275,775,Tag0,unknown
1499247935621,0,9,1.9775390625E-6,37,80,72,1031282,16750524,26969,28659,8544,9373,4275,775,Tag0,unknown
1499247935621,0,-266,-5.8447265625E-5,37,80,72,1031282,16750524,26969,28659,8544,9373,4275,775,Tag0,unknown
1499247935621,0,-259,-5.69091796875E-5,37,80,72,1031282,16750524,26969,28659,8544,9373,4275,775,Tag0,unknown
1499247935621,0,3,6.591796875E-7,37,80,72,1031282,16750524,26969,28659,8544,9373,4275,775,Tag0,unknown
1499247935621,0,-260,-5.712890625E-5,37,80,72,1031282,16750524,26969,28659,8544,9373,4275,775,Tag0,unknown
1499247935622,0,-258,-5.6689453125000004E-5,37,80,72,1031282,16750524,26969,28659,8544,9373,4275,775,Tag0,unknown
1499247935622,0,7,1.5380859375E-6,37,80,72,1031282,16750524,26969,28659,8544,9373,4275,775,Tag0,unknown
1499247935622,0,0,0.0,37,80,72,1031282,16750524,26969,28659,8544,9373,4275,775,Tag0,unknown
1499247935622,0,-279,-6.13037109375E-5,37,80,72,1031282,16750524,26969,28659,8544,9373,4275,775,Tag0,unknown
1499247935622,0,-299,-6.56982421875E-5,37,80,72,1031282,16750524,26969,28659,8544,9373,4275,775,Tag0,unknown
1499247935623,0,-297,-6.525878906250001E-5,37,80,72,1031282,16750524,26969,28659,8544,9373,4275,775,Tag0,unknown
1499247935623,0,-269,-5.9106445312499996E-5,37,80,72,1031282,16750524,26969,28659,8544,9373,4275,775,Tag0,unknown
1499247935623,0,3,6.591796875E-7,37,80,72,1031282,16750524,26969,28659,8544,9373,4275,775,Tag0,unknown
1499247935623,0,5,1.0986328125E-6,37,80,72,1031282,16750524,26969,28659,8544,9373,4275,775,Tag0,unknown
1499247935623,0,2,4.39453125E-7,37,80,72,1031282,16750524,26969,28659,8544,9373,4275,775,Tag0,unknown
1499247935624,0,6,1.318359375E-6,37,80,72,1031282,16750524,26969,28659,8544,9373,4275,775,Tag0,unknown
1499247935624,0,28,6.15234375E-6,37,80,72,1031282,16750524,26969,28659,8544,9373,4275,775,Tag0,unknown
1499247935624,0,66,1.4501953125E-5,37,80,72,1031282,16750524,26969,28659,8544,9373,4275,775,Tag0,unknown
1499247935624,0,96,2.109375E-5,37,80,72,1031282,16750524,26969,28659,8544,9373,4275,775,Tag0,unknown
1499247935624,0,96,2.109375E-5,37,80,72,1031282,16750524,26969,28659,8544,9373,4275,775,Tag0,unknown
1499247935625,0,85,1.86767578125E-5,37,80,72,1031282,16750524,26969,28659,8544,9373,4275,775,Tag0,unknown
1499247935625,0,84,1.8457031250000004E-5,37,80,72,1031282,16750524,26969,28659,8544,9373,4275,775,Tag0,unknown
1499247935625,0,74,1.6259765625E-5,37,80,72,1031282,16750524,26969,28659,8544,9373,4275,775,Tag0,unknown
1499247935625,0,67,1.4721679687500002E-5,37,80,72,1031282,16750524,26969,28659,8544,9373,4275,775,Tag0,unknown
1499247935625,0,57,1.2524414062500001E-5,37,80,72,1031282,16750524,26969,28659,8544,9373,4275,775,Tag0,unknown
1499247935626,0,57,1.2524414062500001E-5,37,80,72,1031282,16750524,26969,28659,8544,9373,4275,775,Tag0,unknown
1499247935626,0,70,1.5380859375E-5,37,80,72,1031282,16750524,26969,28659,8544,9373,4275,775,Tag0,unknown
1499247935626,0,82,1.8017578124999998E-5,37,80,72,1031282,16750524,26969,28659,8544,9373,4275,775,Tag0,unknown
1499247935626,0,71,1.56005859375E-5,37,80,72,1031282,16750524,26969,28659,8544,9373,4275,775,Tag0,unknown
1499247935626,0,57,1.2524414062500001E-5,37,80,72,1031282,16750524,26969,28659,8544,9373,4275,775,Tag0,unknown
1499247935627,0,60,1.318359375E-5,37,80,72,1031282,16750524,26969,28659,8544,9373,4275,775,Tag0,unknown
1499247935627,0,60,1.318359375E-5,37,80,72,1031282,16750524,26969,28659,8544,9373,4275,775,Tag0,unknown
1499247935627,0,43,9.448242187500001E-6,37,80,72,1031282,16750524,26969,28659,8544,9373,4275,775,Tag0,unknown
1499247935627,0,49,1.07666015625E-5,37,80,72,1031282,16750524,26969,28659,8544,9373,4275,775,Tag0,unknown
1499247935627,0,76,1.669921875E-5,37,80,72,1031282,16750524,26969,28659,8544,9373,4275,775,Tag0,unknown
1499247935627,0,97,2.13134765625E-5,37,80,72,1031282,16750524,26969,28659,8544,9373,4275,775,Tag0,unknown
1499247935628,0,92,2.021484375E-5,37,80,72,1031282,16750524,26969,28659,8544,9373,4275,775,Tag0,unknown
1499247935628,0,83,1.82373046875E-5,37,80,72,1031282,16750524,26969,28659,8544,9373,4275,775,Tag0,unknown
1499247935628,0,80,1.7578125E-5,37,80,72,1031282,16750524,26969,28659,8544,9373,4275,775,Tag0,unknown
1499247935628,0,73,1.6040039062500002E-5,37,80,72,1031282,16750524,26969,28659,8544,9373,4275,775,Tag0,unknown
1499247935628,0,59,1.29638671875E-5,37,80,72,1031282,16750524,26969,28659,8544,9373,4275,775,Tag0,unknown
1499247935629,0,53,1.1645507812500002E-5,37,80,72,1031282,16750524,26969,28659,8544,9373,4275,775,Tag0,unknown
1499247935629,0,58,1.2744140625E-5,37,80,72,1031282,16750524,26969,28659,8544,9373,4275,775,Tag0,unknown
1499247935629,0,54,1.1865234375000001E-5,37,80,72,1031282,16750524,26969,28659,8544,9373,4275,775,Tag0,unknown
1499247935629,0,42,9.228515625000002E-6,37,80,72,1031282,16750524,26969,28659,8544,9373,4275,775,Tag0,unknown
1499247935629,0,25,5.4931640625E-6,37,80,72,1031282,16750524,26969,28659,8544,9373,4275,775,Tag0,unknown
1499247935629,0,21,4.614257812500001E-6,37,80,72,1031282,16750524,26969,28659,8544,9373,4275,775,Tag0,unknown
1499247935630,0,39,8.5693359375E-6,37,80,72,1031282,16750524,26969,28659,8544,9373,4275,775,Tag0,unknown
1499247935630,0,66,1.4501953125E-5,37,80,72,1031282,16750524,26969,28659,8544,9373,4275,775,Tag0,unknown
1499247935630,0,93,2.04345703125E-5,37,80,72,1031282,16750524,26969,28659,8544,9373,4275,775,Tag0,unknown
1499247935630,0,116,2.548828125E-5,37,80,72,1031282,16750524,26969,28659,8544,9373,4275,775,Tag0,unknown
1499247935630,0,115,2.52685546875E-5,37,80,72,1031282,16750524,26969,28659,8544,9373,4275,775,Tag0,unknown
1499247935631,0,98,2.1533203125E-5,37,80,72,1031282,16750524,26969,28659,8544,9373,4275,775,Tag0,unknown
1499247935631,0,97,2.13134765625E-5,37,80,72,1031282,16750524,26969,28659,8544,9373,4275,775,Tag0,unknown
1499247935631,0,113,2.48291015625E-5,37,80,72,1031282,16750524,26969,28659,8544,9373,4275,775,Tag0,unknown
1499247935631,0,-126,-2.7685546875E-5,37,80,72,1031282,16750524,26969,28659,8544,9373,4275,775,Tag0,unknown
1499247935631,0,-118,-2.5927734375E-5,37,80,72,1031282,16750524,26969,28659,8544,9373,4275,775,Tag0,unknown
1499247935631,0,-103,-2.26318359375E-5,37,80,72,1031282,16750524,26969,28659,8544,9373,4275,775,Tag0,unknown
1499247935632,0,-80,-1.7578125E-5,37,80,72,1031282,16750524,26969,28659,8544,9373,4275,775,Tag0,unknown
1499247935632,0,-80,-1.7578125E-5,37,80,72,1031282,16750524,26969,28659,8544,9373,4275,775,Tag0,unknown
1499247935632,0,-79,-1.7358398437500003E-5,37,80,72,1031282,16750524,26969,28659,8544,9373,4275,775,Tag0,unknown
1499247935632,0,-73,-1.6040039062500002E-5,37,80,72,1031282,16750524,26969,28659,8544,9373,4275,775,Tag0,unknown
1499247935632,0,-77,-1.69189453125E-5,37,80,72,1031282,16750524,26969,28659,8544,9373,4275,775,Tag0,unknown
1499247935633,0,-75,-1.64794921875E-5,37,80,72,1031282,16750524,26969,28659,8544,9373,4275,775,Tag0,unknown
1499247935633,0,-60,-1.318359375E-5,37,80,72,1031282,16750524,26969,28659,8544,9373,4275,775,Tag0,unknown
1499247935633,0,-51,-1.1206054687499999E-5,37,80,72,1031282,16750524,26969,28659,8544,9373,4275,775,Tag0,unknown
1499247935633,0,-51,-1.1206054687499999E-5,37,80,72,1031282,16750524,26969,28659,8544,9373,4275,775,Tag0,unknown
1499247935633,0,-58,-1.2744140625E-5,37,80,72,1031282,16750524,26969,28659,8544,9373,4275,775,Tag0,unknown
1499247935634,0,-62,-1.3623046875E-5,37,80,72,1031282,16750524,26969,28659,8544,9373,4275,775,Tag0,unknown
1499247935634,0,-76,-1.669921875E-5,37,80,72,1031282,16750524,26969,28659,8544,9373,4275,775,Tag0,unknown
1499247935634,0,-106,-2.3291015625000003E-5,37,80,72,1031282,16750524,26969,28659,8544,9373,4275,775,Tag0,unknown
1499247935634,0,-128,-2.8125E-5,37,80,72,1031282,16750524,26969,28659,8544,9373,4275,775,Tag0,unknown
1499247935634,0,124,2.724609375E-5,37,80,72,1031282,16750524,26969,28659,8544,9373,4275,775,Tag0,unknown
1499247935634,0,-119,-2.6147460937500004E-5,37,80,72,1031282,16750524,26969,28659,8544,9373,4275,775,Tag0,unknown
1499247935643,0,-84,-1.8457031250000004E-5,37,80,72,1031282,16750524,26969,28659,8544,9373,4275,775,Tag0,unknown
1499247935643,0,-62,-1.3623046875E-5,37,80,72,1031282,16750524,26969,28659,8544,9373,4275,775,Tag0,unknown
1499247935644,0,-76,-1.669921875E-5,37,80,72,1031282,16750524,26969,28659,8544,9373,4275,775,Tag0,unknown
1499247935644,0,-102,-2.2412109374999998E-5,37,80,72,1031282,16750524,26969,28659,8544,9373,4275,775,Tag0,unknown
1499247935644,0,-112,-2.4609375E-5,37,80,72,1031282,16750524,26969,28659,8544,9373,4275,775,Tag0,unknown
1499247935644,0,-116,-2.548828125E-5,37,80,72,1031282,16750524,26969,28659,8544,9373,4275,775,Tag0,unknown
1499247935644,0,-120,-2.63671875E-5,37,80,72,1031282,16750524,26969,28659,8544,9373,4275,775,Tag0,unknown
1499247935644,0,-105,-2.30712890625E-5,37,80,72,1031282,16750524,26969,28659,8544,9373,4275,775,Tag0,unknown
1499247935645,0,-90,-1.9775390625E-5,37,80,72,1031282,16750524,26969,28659,8544,9373,4275,775,Tag0,unknown
1499247935645,0,-87,-1.91162109375E-5,37,80,72,1031282,16750524,26969,28659,8544,9373,4275,775,Tag0,unknown
1499247935645,0,-110,-2.4169921875E-5,37,80,72,1031282,16750524,26969,28659,8544,9373,4275,775,Tag0,unknown
1499247935645,0,118,2.5927734375E-5,37,80,72,1031282,16750524,26969,28659,8544,9373,4275,775,Tag0,unknown
1499247935645,0,87,1.91162109375E-5,37,80,72,1031282,16750524,26969,28659,8544,9373,4275,775,Tag0,unknown
1499247935646,0,59,1.29638671875E-5,37,80,72,1031282,16750524,26969,28659,8544,9373,4275,775,Tag0,unknown
1499247935646,0,48,1.0546875E-5,37,80,72,1031282,16750524,26969,28659,8544,9373,4275,775,Tag0,unknown
1499247935647,0,33,7.2509765625E-6,37,80,72,1031282,16750524,26969,28659,8544,9373,4275,775,Tag0,unknown
1499247935647,0,39,8.5693359375E-6,37,80,72,1031282,16750524,26969,28659,8544,9373,4275,775,Tag0,unknown
1499247935647,0,64,1.40625E-5,37,80,72,1031282,16750524,26969,28659,8544,9373,4275,775,Tag0,unknown
1499247935647,0,64,1.40625E-5,37,80,72,1031282,16750524,26969,28659,8544,9373,4275,775,Tag0,unknown
1499247935647,0,58,1.2744140625E-5,37,80,72,1031282,16750524,26969,28659,8544,9373,4275,775,Tag0,unknown
1499247935647,0,60,1.318359375E-5,37,80,72,1031282,16750524,26969,28659,8544,9373,4275,775,Tag0,unknown
1499247935648,0,58,1.2744140625E-5,37,80,72,1031282,16750524,26969,28659,8544,9373,4275,775,Tag0,unknown
1499247935648,0,54,1.1865234375000001E-5,37,80,72,1031282,16750524,26969,28659,8544,9373,4275,775,Tag0,unknown
1499247935648,0,51,1.1206054687499999E-5,37,80,72,1031282,16750524,26969,28659,8544,9373,4275,775,Tag0,unknown
1499247935648,0,49,1.07666015625E-5,37,80,72,1031282,16750524,26969,28659,8544,9373,4275,775,Tag0,unknown
1499247935648,0,40,8.7890625E-6,37,80,72,1031282,16750524,26969,28659,8544,9373,4275,775,Tag0,unknown
1499247935648,0,42,9.228515625000002E-6,37,80,72,1031282,16750524,26969,28659,8544,9373,4275,775,Tag0,unknown
1499247935649,0,39,8.5693359375E-6,37,80,72,1031282,16750524,26969,28659,8544,9373,4275,775,Tag0,unknown
1499247935649,0,32,7.03125E-6,37,80,72,1031282,16750524,26969,28659,8544,9373,4275,775,Tag0,unknown
1499247935649,0,24,5.2734375E-6,37,80,72,1031282,16750524,26969,28659,8544,9373,4275,775,Tag0,unknown
1499247935649,0,33,7.2509765625E-6,37,80,72,1031282,16750524,26969,28659,8544,9373,4275,775,Tag0,unknown
1499247935649,0,42,9.228515625000002E-6,37,80,72,1031282,16750524,26969,28659,8544,9373,4275,775,Tag0,unknown
1499247935664,0,35,7.6904296875E-6,37,80,72,1031282,16750524,26969,28659,8544,9373,4275,775,Tag0,unknown
1499247935665,0,19,4.1748046875E-6,37,80,72,1031282,16750524,26969,28659,8544,9373,4275,775,Tag0,unknown
1499247935665,0,28,6.15234375E-6,37,80,72,1031282,16750524,26969,28659,8544,9373,4275,775,Tag0,unknown
1499247935665,0,68,1.4941406250000001E-5,37,80,72,1031282,16750524,26969,28659,8544,9373,4275,775,Tag0,unknown
1499247935665,0,80,1.7578125E-5,37,80,72,1031282,16750524,26969,28659,8544,9373,4275,775,Tag0,unknown
1499247935665,0,64,1.40625E-5,37,80,72,1031282,16750524,26969,28659,8544,9373,4275,775,Tag0,unknown
1499247935666,0,49,1.07666015625E-5,37,80,72,1031282,16750524,26969,28659,8544,9373,4275,775,Tag0,unknown
1499247935666,0,42,9.228515625000002E-6,37,80,72,1031282,16750524,26969,28659,8544,9373,4275,775,Tag0,unknown
1499247935666,0,34,7.4707031250000005E-6,37,80,72,1031282,16750524,26969,28659,8544,9373,4275,775,Tag0,unknown
1499247935666,0,32,7.03125E-6,37,80,72,1031282,16750524,26969,28659,8544,9373,4275,775,Tag0,unknown
1499247935666,0,45,9.8876953125E-6,37,80,72,1031282,16750524,26969,28659,8544,9373,4275,775,Tag0,unknown
1499247935671,0,82,1.8017578124999998E-5,37,80,72,1031282,16750524,26969,28659,8544,9373,4275,775,Tag0,unknown
1499247935671,0,85,1.86767578125E-5,37,80,72,1031282,16750524,26969,28659,8544,9373,4275,775,Tag0,unknown
1499247935671,0,54,1.1865234375000001E-5,37,80,72,1031282,16750524,26969,28659,8544,9373,4275,775,Tag0,unknown
1499247935671,0,49,1.07666015625E-5,37,80,72,1031282,16750524,26969,28659,8544,9373,4275,775,Tag0,unknown
1499247935671,0,65,1.42822265625E-5,37,80,72,1031282,16750524,26969,28659,8544,9373,4275,775,Tag0,unknown
1499247935724,0,70,1.5380859375E-5,37,80,72,1031282,16750524,26969,28659,8544,9373,4275,775,Tag0,unknown
1499247935725,0,69,1.51611328125E-5,37,80,72,1031282,16750524,26969,28659,8544,9373,4275,775,Tag0,unknown
1499247935725,0,66,1.4501953125E-5,37,80,72,1031282,16750524,26969,28659,8544,9373,4275,775,Tag0,unknown
1499247935725,0,50,1.0986328125E-5,37,80,72,1031282,16750524,26969,28659,8544,9373,4275,775,Tag0,unknown
1499247935726,0,28,6.15234375E-6,37,80,72,1031282,16750524,26969,28659,8544,9373,4275,775,Tag0,unknown
1499247935726,0,17,3.7353515625000003E-6,37,80,72,1031282,16750524,26969,28659,8544,9373,4275,775,Tag0,unknown
1499247935744,0,11,2.4169921875E-6,37,80,72,1031282,16750524,26969,28659,8544,9373,4275,775,Tag0,unknown
1499247935745,0,22,4.833984375E-6,37,80,72,1031282,16750524,26969,28659,8544,9373,4275,775,Tag0,unknown
1499247935746,0,22,4.833984375E-6,37,80,72,1031282,16750524,26969,28659,8544,9373,4275,775,Tag0,unknown
1499247935746,0,-259,-5.69091796875E-5,37,80,72,1031282,16750524,26969,28659,8544,9373,4275,775,Tag0,unknown
1499247935747,0,-266,-5.8447265625E-5,37,80,72,1031282,16750524,26969,28659,8544,9373,4275,775,Tag0,unknown
1499247935747,0,28,6.15234375E-6,37,80,72,1031282,16750524,26969,28659,8544,9373,4275,775,Tag0,unknown
1499247935748,0,72,1.58203125E-5,37,80,72,1031282,16750524,26969,28659,8544,9373,4275,775,Tag0,unknown
1499247935748,0,76,1.669921875E-5,37,80,72,1031282,16750524,26969,28659,8544,9373,4275,775,Tag0,unknown
1499247935749,0,71,1.56005859375E-5,37,80,72,1031282,16750524,26969,28659,8544,9373,4275,775,Tag0,unknown
1499247935749,0,88,1.93359375E-5,37,80,72,1031282,16750524,26969,28659,8544,9373,4275,775,Tag0,unknown
1499247935750,0,102,2.2412109374999998E-5,37,80,72,1031282,16750524,26969,28659,8544,9373,4275,775,Tag0,unknown
1499247935750,0,86,1.8896484375000003E-5,37,80,72,1031282,16750524,26969,28659,8544,9373,4275,775,Tag0,unknown
1499247935751,0,65,1.42822265625E-5,37,80,72,1031282,16750524,26969,28659,8544,9373,4275,775,Tag0,unknown
1499247935751,0,66,1.4501953125E-5,37,80,72,1031282,16750524,26969,28659,8544,9373,4275,775,Tag0,unknown
1499247935752,0,74,1.6259765625E-5,37,80,72,1031282,16750524,26969,28659,8544,9373,4275,775,Tag0,unknown
1499247935752,0,74,1.6259765625E-5,37,80,72,1031282,16750524,26969,28659,8544,9373,4275,775,Tag0,unknown
1499247935753,0,71,1.56005859375E-5,37,80,72,1031282,16750524,26969,28659,8544,9373,4275,775,Tag0,unknown
1499247935753,0,71,1.56005859375E-5,37,80,72,1031282,16750524,26969,28659,8544,9373,4275,775,Tag0,unknown
1499247935754,0,103,2.26318359375E-5,37,80,72,1031282,16750524,26969,28659,8544,9373,4275,775,Tag0,unknown
1499247935754,0,-128,-2.8125E-5,37,80,72,1031282,16750524,26969,28659,8544,9373,4275,775,Tag0,unknown
1499247935755,0,119,2.6147460937500004E-5,37,80,72,1031282,16750524,26969,28659,8544,9373,4275,775,Tag0,unknown
1499247935755,0,112,2.4609375E-5,37,80,72,1031282,16750524,26969,28659,8544,9373,4275,775,Tag0,unknown
1499247935756,0,123,2.70263671875E-5,37,80,72,1031282,16750524,26969,28659,8544,9373,4275,775,Tag0,unknown
1499247935756,0,-107,-2.35107421875E-5,37,80,72,1031282,16750524,26969,28659,8544,9373,4275,775,Tag0,unknown
1499247935757,0,-89,-1.95556640625E-5,37,80,72,1031282,16750524,26969,28659,8544,9373,4275,775,Tag0,unknown
1499247935757,0,-86,-1.8896484375000003E-5,37,80,72,1031282,16750524,26969,28659,8544,9373,4275,775,Tag0,unknown
1499247935758,0,-105,-2.30712890625E-5,37,80,72,1031282,16750524,26969,28659,8544,9373,4275,775,Tag0,unknown
1499247935758,0,114,2.5048828125000003E-5,37,80,72,1031282,16750524,26969,28659,8544,9373,4275,775,Tag0,unknown
1499247935759,0,112,2.4609375E-5,37,80,72,1031282,16750524,26969,28659,8544,9373,4275,775,Tag0,unknown
1499247935759,0,-127,-2.79052734375E-5,37,80,72,1031282,16750524,26969,28659,8544,9373,4275,775,Tag0,unknown
1499247935760,0,121,2.6586914062500003E-5,37,80,72,1031282,16750524,26969,28659,8544,9373,4275,775,Tag0,unknown
1499247935760,0,101,2.2192382812500002E-5,37,80,72,1031282,16750524,26969,28659,8544,9373,4275,775,Tag0,unknown
1499247935761,0,85,1.86767578125E-5,37,80,72,1031282,16750524,26969,28659,8544,9373,4275,775,Tag0,unknown
1499247935761,0,87,1.91162109375E-5,37,80,72,1031282,16750524,26969,28659,8544,9373,4275,775,Tag0,unknown
1499247935762,0,91,1.99951171875E-5,37,80,72,1031282,16750524,26969,28659,8544,9373,4275,775,Tag0,unknown
1499247935762,0,89,1.95556640625E-5,37,80,72,1031282,16750524,26969,28659,8544,9373,4275,775,Tag0,unknown
1499247935763,0,80,1.7578125E-5,37,80,72,1031282,16750524,26969,28659,8544,9373,4275,775,Tag0,unknown
1499247935764,0,71,1.56005859375E-5,37,80,72,1031282,16750524,26969,28659,8544,9373,4275,775,Tag0,unknown
1499247935764,0,85,1.86767578125E-5,37,80,72,1031282,16750524,26969,28659,8544,9373,4275,775,Tag0,unknown
1499247935765,0,93,2.04345703125E-5,37,80,72,1031282,16750524,26969,28659,8544,9373,4275,775,Tag0,unknown
1499247935766,0,85,1.86767578125E-5,37,80,72,1031282,16750524,26969,28659,8544,9373,4275,775,Tag0,unknown
1499247935766,0,82,1.8017578124999998E-5,37,80,72,1031282,16750524,26969,28659,8544,9373,4275,775,Tag0,unknown
1499247935771,0,88,1.93359375E-5,37,80,72,1031282,16750524,26969,28659,8544,9373,4275,775,Tag0,unknown
1499247935771,0,86,1.8896484375000003E-5,37,80,72,1031282,16750524,26969,28659,8544,9373,4275,775,Tag0,unknown
1499247935772,0,85,1.86767578125E-5,37,80,72,1031282,16750524,26969,28659,8544,9373,4275,775,Tag0,unknown
1499247935772,0,75,1.64794921875E-5,37,80,72,1031282,16750524,26969,28659,8544,9373,4275,775,Tag0,unknown
1499247935773,0,73,1.6040039062500002E-5,37,80,72,1031282,16750524,26969,28659,8544,9373,4275,775,Tag0,unknown
1499247935773,0,86,1.8896484375000003E-5,37,80,72,1031282,16750524,26969,28659,8544,9373,4275,775,Tag0,unknown
1499247935774,0,107,2.35107421875E-5,37,80,72,1031282,16750524,26969,28659,8544,9373,4275,775,Tag0,unknown
1499247935774,0,-124,-2.724609375E-5,37,80,72,1031282,16750524,26969,28659,8544,9373,4275,775,Tag0,unknown
1499247935775,0,-123,-2.70263671875E-5,37,80,72,1031282,16750524,26969,28659,8544,9373,4275,775,Tag0,unknown
1499247935779,0,101,2.2192382812500002E-5,37,80,72,1031282,16750524,26969,28659,8544,9373,4275,775,Tag0,unknown
1499247935779,0,81,1.77978515625E-5,37,80,72,1031282,16750524,26969,28659,8544,9373,4275,775,Tag0,unknown
1499247935780,0,100,2.197265625E-5,37,80,72,1031282,16750524,26969,28659,8544,9373,4275,775,Tag0,unknown
1499247935780,0,-126,-2.7685546875E-5,37,80,72,1031282,16750524,26969,28659,8544,9373,4275,775,Tag0,unknown
1499247935780,0,-119,-2.6147460937500004E-5,37,80,72,1031282,16750524,26969,28659,8544,9373,4275,775,Tag0,unknown
1499247935781,0,109,2.39501953125E-5,37,80,72,1031282,16750524,26969,28659,8544,9373,4275,775,Tag0,unknown
1499247935924,0,45,9.8876953125E-6,37,80,72,1031282,16750524,26969,28659,8544,9373,4275,775,Tag0,unknown
1499247935925,0,20,4.39453125E-6,37,80,72,1031282,16750524,26969,28659,8544,9373,4275,775,Tag0,unknown
1499247935925,0,24,5.2734375E-6,37,80,72,1031282,16750524,26969,28659,8544,9373,4275,775,Tag0,unknown
1499247935925,0,12,2.63671875E-6,37,80,72,1031282,16750524,26969,28659,8544,9373,4275,775,Tag0,unknown
1499247935926,0,-257,-5.64697265625E-5,37,80,72,1031282,16750524,26969,28659,8544,9373,4275,775,Tag0,unknown
1499247935926,0,18,3.955078125E-6,37,80,72,1031282,16750524,26969,28659,8544,9373,4275,775,Tag0,unknown
1499247935927,0,44,9.66796875E-6,37,80,72,1031282,16750524,26969,28659,8544,9373,4275,775,Tag0,unknown
1499247935928,0,53,1.1645507812500002E-5,37,80,72,1031282,16750524,26969,28659,8544,9373,4275,775,Tag0,unknown
1499247935928,0,38,8.349609375E-6,37,80,72,1031282,16750524,26969,28659,8544,9373,4275,775,Tag0,unknown
1499247935930,0,16,3.515625E-6,37,80,72,1031282,16750524,26969,28659,8544,9373,4275,775,Tag0,unknown
1499247935931,0,-263,-5.7788085937500005E-5,37,80,72,1031282,16750524,26969,28659,8544,9373,4275,775,Tag0,unknown
1499247935934,0,-264,-5.80078125E-5,37,80,72,1031282,16750524,26969,28659,8544,9373,4275,775,Tag0,unknown
1499247935935,0,4,8.7890625E-7,37,80,72,1031282,16750524,26969,28659,8544,9373,4275,775,Tag0,unknown
1499247935935,0,1,2.197265625E-7,37,80,72,1031282,16750524,26969,28659,8544,9373,4275,775,Tag0,unknown
1499247935936,0,-259,-5.69091796875E-5,37,80,72,1031282,16750524,26969,28659,8544,9373,4275,775,Tag0,unknown
1499247935937,0,9,1.9775390625E-6,37,80,72,1031282,16750524,26969,28659,8544,9373,4275,775,Tag0,unknown
1499247935938,0,18,3.955078125E-6,37,80,72,1031282,16750524,26969,28659,8544,9373,4275,775,Tag0,unknown
1499247935938,0,5,1.0986328125E-6,37,80,72,1031282,16750524,26969,28659,8544,9373,4275,775,Tag0,unknown
1499247935939,0,-285,-6.26220703125E-5,37,80,72,1031282,16750524,26969,28659,8544,9373,4275,775,Tag0,unknown
1499247935939,0,-294,-6.4599609375E-5,37,80,72,1031282,16750524,26969,28659,8544,9373,4275,775,Tag0,unknown
1499247935939,0,-259,-5.69091796875E-5,37,80,72,1031282,16750524,26969,28659,8544,9373,4275,775,Tag0,unknown
1499247935939,0,22,4.833984375E-6,37,80,72,1031282,16750524,26969,28659,8544,9373,4275,775,Tag0,unknown
1499247935940,0,4,8.7890625E-7,37,80,72,1031282,16750524,26969,28659,8544,9373,4275,775,Tag0,unknown
1499247935940,0,-280,-6.15234375E-5,37,80,72,1031282,16750524,26969,28659,8544,9373,4275,775,Tag0,unknown
1499247935940,0,-282,-6.1962890625E-5,37,80,72,1031282,16750524,26969,28659,8544,9373,4275,775,Tag0,unknown
1499247935940,0,-277,-6.0864257812500005E-5,37,80,72,1031282,16750524,26969,28659,8544,9373,4275,775,Tag0,unknown
1499247935941,0,-268,-5.8886718750000006E-5,37,80,72,1031282,16750524,26969,28659,8544,9373,4275,775,Tag0,unknown
1499247935941,0,4,8.7890625E-7,37,80,72,1031282,16750524,26969,28659,8544,9373,4275,775,Tag0,unknown
1499247935941,0,16,3.515625E-6,37,80,72,1031282,16750524,26969,28659,8544,9373,4275,775,Tag0,unknown
1499247935942,0,24,5.2734375E-6,37,80,72,1031282,16750524,26969,28659,8544,9373,4275,775,Tag0,unknown
1499247935942,0,45,9.8876953125E-6,37,80,72,1031282,16750524,26969,28659,8544,9373,4275,775,Tag0,unknown
1499247935942,0,76,1.669921875E-5,37,80,72,1031282,16750524,26969,28659,8544,9373,4275,775,Tag0,unknown
1499247935942,0,113,2.48291015625E-5,37,80,72,1031282,16750524,26969,28659,8544,9373,4275,775,Tag0,unknown
1499247935943,0,121,2.6586914062500003E-5,37,80,72,1031282,16750524,26969,28659,8544,9373,4275,775,Tag0,unknown
1499247935943,0,100,2.197265625E-5,37,80,72,1031282,16750524,26969,28659,8544,9373,4275,775,Tag0,unknown
1499247935943,0,96,2.109375E-5,37,80,72,1031282,16750524,26969,28659,8544,9373,4275,775,Tag0,unknown
1499247935943,0,114,2.5048828125000003E-5,37,80,72,1031282,16750524,26969,28659,8544,9373,4275,775,Tag0,unknown
1499247935944,0,-128,-2.8125E-5,37,80,72,1031282,16750524,26969,28659,8544,9373,4275,775,Tag0,unknown
1499247935944,0,-125,-2.74658203125E-5,37,80,72,1031282,16750524,26969,28659,8544,9373,4275,775,Tag0,unknown
1499247935944,0,117,2.5708007812499998E-5,37,80,72,1031282,16750524,26969,28659,8544,9373,4275,775,Tag0,unknown
1499247935945,0,97,2.13134765625E-5,37,80,72,1031282,16750524,26969,28659,8544,9373,4275,775,Tag0,unknown
1499247935945,0,92,2.021484375E-5,37,80,72,1031282,16750524,26969,28659,8544,9373,4275,775,Tag0,unknown
1499247935945,0,77,1.69189453125E-5,37,80,72,1031282,16750524,26969,28659,8544,9373,4275,775,Tag0,unknown
1499247935946,0,54,1.1865234375000001E-5,37,80,72,1031282,16750524,26969,28659,8544,9373,4275,775,Tag0,unknown
1499247935946,0,59,1.29638671875E-5,37,80,72,1031282,16750524,26969,28659,8544,9373,4275,775,Tag0,unknown
1499247935946,0,76,1.669921875E-5,37,80,72,1031282,16750524,26969,28659,8544,9373,4275,775,Tag0,unknown
1499247935947,0,69,1.51611328125E-5,37,80,72,1031282,16750524,26969,28659,8544,9373,4275,775,Tag0,unknown
1499247935947,0,52,1.142578125E-5,37,80,72,1031282,16750524,26969,28659,8544,9373,4275,775,Tag0,unknown
1499247935950,0,36,7.91015625E-6,37,80,72,1031282,16750524,26969,28659,8544,9373,4275,775,Tag0,unknown
1499247935951,0,22,4.833984375E-6,37,80,72,1031282,16750524,26969,28659,8544,9373,4275,775,Tag0,unknown
1499247935951,0,36,7.91015625E-6,37,80,72,1031282,16750524,26969,28659,8544,9373,4275,775,Tag0,unknown
1499247935951,0,61,1.34033203125E-5,37,80,72,1031282,16750524,26969,28659,8544,9373,4275,775,Tag0,unknown
1499247935952,0,50,1.0986328125E-5,37,80,72,1031282,16750524,26969,28659,8544,9373,4275,775,Tag0,unknown
1499247935952,0,7,1.5380859375E-6,37,80,72,1031282,16750524,26969,28659,8544,9373,4275,775,Tag0,unknown
1499247935952,0,-276,-6.064453125E-5,37,80,72,1031282,16750524,26969,28659,8544,9373,4275,775,Tag0,unknown
1499247935953,0,-273,-5.998535156250001E-5,37,80,72,1031282,16750524,26969,28659,8544,9373,4275,775,Tag0,unknown
1499247935953,0,5,1.0986328125E-6,37,80,72,1031282,16750524,26969,28659,8544,9373,4275,775,Tag0,unknown
1499247935954,0,28,6.15234375E-6,37,80,72,1031282,16750524,26969,28659,8544,9373,4275,775,Tag0,unknown
1499247935954,0,41,9.008789062499999E-6,37,80,72,1031282,16750524,26969,28659,8544,9373,4275,775,Tag0,unknown
1499247935955,0,36,7.91015625E-6,37,80,72,1031282,16750524,26969,28659,8544,9373,4275,775,Tag0,unknown
1499247935955,0,20,4.39453125E-6,37,80,72,1031282,16750524,26969,28659,8544,9373,4275,775,Tag0,unknown
1499247935955,0,9,1.9775390625E-6,37,80,72,1031282,16750524,26969,28659,8544,9373,4275,775,Tag0,unknown
1499247935956,0,-264,-5.80078125E-5,37,80,72,1031282,16750524,26969,28659,8544,9373,4275,775,Tag0,unknown
1499247935956,0,-282,-6.1962890625E-5,37,80,72,1031282,16750524,26969,28659,8544,9373,4275,775,Tag0,unknown
1499247935956,0,-262,-5.7568359375E-5,37,80,72,1031282,16750524,26969,28659,8544,9373,4275,775,Tag0,unknown
1499247935956,0,38,8.349609375E-6,37,80,72,1031282,16750524,26969,28659,8544,9373,4275,775,Tag0,unknown
1499247935957,0,70,1.5380859375E-5,37,80,72,1031282,16750524,26969,28659,8544,9373,4275,775,Tag0,unknown
1499247935957,0,73,1.6040039062500002E-5,37,80,72,1031282,16750524,26969,28659,8544,9373,4275,775,Tag0,unknown
1499247935957,0,67,1.4721679687500002E-5,37,80,72,1031282,16750524,26969,28659,8544,9373,4275,775,Tag0,unknown
1499247935958,0,83,1.82373046875E-5,37,80,72,1031282,16750524,26969,28659,8544,9373,4275,775,Tag0,unknown
1499247935958,0,122,2.6806640625E-5,37,80,72,1031282,16750524,26969,28659,8544,9373,4275,775,Tag0,unknown
1499247935958,0,-101,-2.2192382812500002E-5,37,80,72,1031282,16750524,26969,28659,8544,9373,4275,775,Tag0,unknown
1499247935962,0,-107,-2.35107421875E-5,37,80,72,1031282,16750524,26969,28659,8544,9373,4275,775,Tag0,unknown
1499247935962,0,-105,-2.30712890625E-5,37,80,72,1031282,16750524,26969,28659,8544,9373,4275,775,Tag0,unknown
1499247935963,0,-84,-1.8457031250000004E-5,37,80,72,1031282,16750524,26969,28659,8544,9373,4275,775,Tag0,unknown
1499247935963,0,-73,-1.6040039062500002E-5,37,80,72,1031282,16750524,26969,28659,8544,9373,4275,775,Tag0,unknown
1499247935963,0,-80,-1.7578125E-5,37,80,72,1031282,16750524,26969,28659,8544,9373,4275,775,Tag0,unknown
1499247935964,0,-108,-2.3730468750000002E-5,37,80,72,1031282,16750524,26969,28659,8544,9373,4275,775,Tag0,unknown
1499247935964,0,117,2.5708007812499998E-5,37,80,72,1031282,16750524,26969,28659,8544,9373,4275,775,Tag0,unknown
1499247936171,0,112,2.4609375E-5,37,80,72,1031282,16750524,26969,28659,8544,9373,4275,775,Tag0,unknown
1499247936172,0,118,2.5927734375E-5,37,80,72,1031282,16750524,26969,28659,8544,9373,4275,775,Tag0,unknown
1499247936172,0,119,2.6147460937500004E-5,37,80,72,1031282,16750524,26969,28659,8544,9373,4275,775,Tag0,unknown
1499247936173,0,116,2.548828125E-5,37,80,72,1031282,16750524,26969,28659,8544,9373,4275,775,Tag0,unknown
1499247936173,0,100,2.197265625E-5,37,80,72,1031282,16750524,26969,28659,8544,9373,4275,775,Tag0,unknown
1499247936173,0,76,1.669921875E-5,37,80,72,1031282,16750524,26969,28659,8544,9373,4275,775,Tag0,unknown
1499247936173,0,65,1.42822265625E-5,37,80,72,1031282,16750524,26969,28659,8544,9373,4275,775,Tag0,unknown
1499247936173,0,56,1.23046875E-5,37,80,72,1031282,16750524,26969,28659,8544,9373,4275,775,Tag0,unknown
1499247936174,0,67,1.4721679687500002E-5,37,80,72,1031282,16750524,26969,28659,8544,9373,4275,775,Tag0,unknown
1499247936174,0,76,1.669921875E-5,37,80,72,1031282,16750524,26969,28659,8544,9373,4275,775,Tag0,unknown
1499247936174,0,61,1.34033203125E-5,37,80,72,1031282,16750524,26969,28659,8544,9373,4275,775,Tag0,unknown
1499247936174,0,43,9.448242187500001E-6,37,80,72,1031282,16750524,26969,28659,8544,9373,4275,775,Tag0,unknown
1499247936174,0,42,9.228515625000002E-6,37,80,72,1031282,16750524,26969,28659,8544,9373,4275,775,Tag0,unknown
1499247936175,0,39,8.5693359375E-6,37,80,72,1031282,16750524,26969,28659,8544,9373,4275,775,Tag0,unknown
1499247936175,0,21,4.614257812500001E-6,37,80,72,1031282,16750524,26969,28659,8544,9373,4275,775,Tag0,unknown
1499247936175,0,7,1.5380859375E-6,37,80,72,1031282,16750524,26969,28659,8544,9373,4275,775,Tag0,unknown
1499247936201,0,12,2.63671875E-6,37,67,72,23445,16747765,722,10182,9134,3388,1468,710,Tag0,unknown
1499247936201,0,34,7.4707031250000005E-6,37,67,72,23445,16747765,722,10182,9134,3388,1468,710,Tag0,unknown
1499247936201,0,40,8.7890625E-6,37,67,72,23445,16747765,722,10182,9134,3388,1468,710,Tag0,unknown
1499247936201,0,28,6.15234375E-6,37,67,72,23445,16747765,722,10182,9134,3388,1468,710,Tag0,unknown
1499247936202,0,12,2.63671875E-6,37,67,72,23445,16747765,722,10182,9134,3388,1468,710,Tag0,unknown
1499247936202,0,-258,-5.6689453125000004E-5,37,67,72,23445,16747765,722,10182,9134,3388,1468,710,Tag0,unknown
1499247936202,0,-281,-6.17431640625E-5,37,67,72,23445,16747765,722,10182,9134,3388,1468,710,Tag0,unknown
1499247936202,0,-302,-6.6357421875E-5,37,67,72,23445,16747765,722,10182,9134,3388,1468,710,Tag0,unknown
1499247936202,0,-300,-6.591796875E-5,37,67,72,23445,16747765,722,10182,9134,3388,1468,710,Tag0,unknown
1499247936202,0,-277,-6.0864257812500005E-5,37,67,72,23445,16747765,722,10182,9134,3388,1468,710,Tag0,unknown
1499247936202,0,5,1.0986328125E-6,37,67,72,23445,16747765,722,10182,9134,3388,1468,710,Tag0,unknown
1499247936203,0,21,4.614257812500001E-6,37,67,72,23445,16747765,722,10182,9134,3388,1468,710,Tag0,unknown
1499247936203,0,8,1.7578125E-6,37,67,72,23445,16747765,722,10182,9134,3388,1468,710,Tag0,unknown
1499247936203,0,-259,-5.69091796875E-5,37,67,72,23445,16747765,722,10182,9134,3388,1468,710,Tag0,unknown
1499247936203,0,24,5.2734375E-6,37,67,72,23445,16747765,722,10182,9134,3388,1468,710,Tag0,unknown
1499247936203,0,61,1.34033203125E-5,37,67,72,23445,16747765,722,10182,9134,3388,1468,710,Tag0,unknown
1499247936203,0,74,1.6259765625E-5,37,67,72,23445,16747765,722,10182,9134,3388,1468,710,Tag0,unknown
1499247936204,0,69,1.51611328125E-5,37,67,72,23445,16747765,722,10182,9134,3388,1468,710,Tag0,unknown
1499247936204,0,53,1.1645507812500002E-5,37,67,72,23445,16747765,722,10182,9134,3388,1468,710,Tag0,unknown
1499247936204,0,36,7.91015625E-6,37,67,72,23445,16747765,722,10182,9134,3388,1468,710,Tag0,unknown
1499247936204,0,37,8.1298828125E-6,37,67,72,23445,16747765,722,10182,9134,3388,1468,710,Tag0,unknown
1499247936204,0,43,9.448242187500001E-6,37,67,72,23445,16747765,722,10182,9134,3388,1468,710,Tag0,unknown
1499247936204,0,44,9.66796875E-6,37,67,72,23445,16747765,722,10182,9134,3388,1468,710,Tag0,unknown
1499247936204,0,50,1.0986328125E-5,37,67,72,23445,16747765,722,10182,9134,3388,1468,710,Tag0,unknown
1499247936205,0,56,1.23046875E-5,37,67,72,23445,16747765,722,10182,9134,3388,1468,710,Tag0,unknown
1499247936205,0,43,9.448242187500001E-6,37,67,72,23445,16747765,722,10182,9134,3388,1468,710,Tag0,unknown
1499247936205,0,39,8.5693359375E-6,37,67,72,23445,16747765,722,10182,9134,3388,1468,710,Tag0,unknown
1499247936208,0,65,1.42822265625E-5,37,67,72,23445,16747765,722,10182,9134,3388,1468,710,Tag0,unknown
1499247936212,0,73,1.6040039062500002E-5,37,67,72,23445,16747765,722,10182,9134,3388,1468,710,Tag0,unknown
1499247936212,0,64,1.40625E-5,37,67,72,23445,16747765,722,10182,9134,3388,1468,710,Tag0,unknown
1499247936212,0,41,9.008789062499999E-6,37,67,72,23445,16747765,722,10182,9134,3388,1468,710,Tag0,unknown
1499247936213,0,32,7.03125E-6,37,67,72,23445,16747765,722,10182,9134,3388,1468,710,Tag0,unknown
1499247936213,0,33,7.2509765625E-6,37,67,72,23445,16747765,722,10182,9134,3388,1468,710,Tag0,unknown
1499247936213,0,19,4.1748046875E-6,37,67,72,23445,16747765,722,10182,9134,3388,1468,710,Tag0,unknown
1499247936213,0,-262,-5.7568359375E-5,37,67,72,23445,16747765,722,10182,9134,3388,1468,710,Tag0,unknown
1499247936213,0,-258,-5.6689453125000004E-5,37,67,72,23445,16747765,722,10182,9134,3388,1468,710,Tag0,unknown
1499247936213,0,17,3.7353515625000003E-6,37,67,72,23445,16747765,722,10182,9134,3388,1468,710,Tag0,unknown
1499247936214,0,16,3.515625E-6,37,67,72,23445,16747765,722,10182,9134,3388,1468,710,Tag0,unknown
1499247936214,0,7,1.5380859375E-6,37,67,72,23445,16747765,722,10182,9134,3388,1468,710,Tag0,unknown
1499247936214,0,11,2.4169921875E-6,37,67,72,23445,16747765,722,10182,9134,3388,1468,710,Tag0,unknown
1499247936214,0,36,7.91015625E-6,37,67,72,23445,16747765,722,10182,9134,3388,1468,710,Tag0,unknown
1499247936214,0,43,9.448242187500001E-6,37,67,72,23445,16747765,722,10182,9134,3388,1468,710,Tag0,unknown
1499247936215,0,41,9.008789062499999E-6,37,67,72,23445,16747765,722,10182,9134,3388,1468,710,Tag0,unknown
1499247936251,0,59,1.29638671875E-5,37,67,72,23445,16747765,722,10182,9134,3388,1468,710,Tag0,unknown
1499247936252,0,100,2.197265625E-5,37,67,72,23445,16747765,722,10182,9134,3388,1468,710,Tag0,unknown
1499247936252,0,-118,-2.5927734375E-5,37,67,72,23445,16747765,722,10182,9134,3388,1468,710,Tag0,unknown
1499247936253,0,-86,-1.8896484375000003E-5,37,67,72,23445,16747765,722,10182,9134,3388,1468,710,Tag0,unknown
1499247936253,0,-57,-1.2524414062500001E-5,37,67,72,23445,16747765,722,10182,9134,3388,1468,710,Tag0,unknown
1499247936254,0,-26,-5.712890625E-6,37,67,72,23445,16747765,722,10182,9134,3388,1468,710,Tag0,unknown
1499247936254,0,263,5.7788085937500005E-5,37,67,72,23445,16747765,722,10182,9134,3388,1468,710,Tag0,unknown
1499247936255,0,282,6.1962890625E-5,37,67,72,23445,16747765,722,10182,9134,3388,1468,710,Tag0,unknown
1499247936256,0,292,6.416015625000001E-5,37,67,72,23445,16747765,722,10182,9134,3388,1468,710,Tag0,unknown
1499247936256,0,292,6.416015625000001E-5,37,67,72,23445,16747765,722,10182,9134,3388,1468,710,Tag0,unknown
1499247936263,0,263,5.7788085937500005E-5,37,67,72,23445,16747765,722,10182,9134,3388,1468,710,Tag0,unknown
1499247936264,0,-16,-3.515625E-6,37,67,72,23445,16747765,722,10182,9134,3388,1468,710,Tag0,unknown
1499247936268,0,-20,-4.39453125E-6,37,67,37,23445,16747765,722,10182,9134,3388,1468,710,Tag0,unknown
1499247936268,0,-16,-3.515625E-6,37,67,37,23445,16747765,722,10182,9134,3388,1468,710,Tag0,unknown
1499247936269,0,-15,-3.2958984375E-6,37,67,37,23445,16747765,722,10182,9134,3388,1468,710,Tag0,unknown
1499247936271,0,-24,-5.2734375E-6,37,67,37,23445,16747765,722,10182,9134,3388,1468,710,Tag0,unknown
1499247936271,0,-47,-1.0327148437500001E-5,37,67,37,23445,16747765,722,10182,9134,3388,1468,710,Tag0,unknown
1499247936272,0,-61,-1.34033203125E-5,37,67,37,23445,16747765,722,10182,9134,3388,1468,710,Tag0,unknown
1499247936272,0,-59,-1.29638671875E-5,37,67,37,23445,16747765,722,10182,9134,3388,1468,710,Tag0,unknown
1499247936273,0,-43,-9.448242187500001E-6,37,67,37,23445,16747765,722,10182,9134,3388,1468,710,Tag0,unknown
1499247936273,0,-42,-9.228515625000002E-6,37,67,37,23445,16747765,722,10182,9134,3388,1468,710,Tag0,unknown
1499247936274,0,-57,-1.2524414062500001E-5,37,67,37,23445,16747765,722,10182,9134,3388,1468,710,Tag0,unknown
1499247936275,0,-73,-1.6040039062500002E-5,37,67,37,23445,16747765,722,10182,9134,3388,1468,710,Tag0,unknown
1499247936275,0,-79,-1.7358398437500003E-5,37,67,37,23445,16747765,722,10182,9134,3388,1468,710,Tag0,unknown
1499247936276,0,-89,-1.95556640625E-5,37,67,37,23445,16747765,722,10182,9134,3388,1468,710,Tag0,unknown
1499247936276,0,-102,-2.2412109374999998E-5,37,67,37,23445,16747765,722,10182,9134,3388,1468,710,Tag0,unknown
1499247936277,0,-120,-2.63671875E-5,37,67,37,23445,16747765,722,10182,9134,3388,1468,710,Tag0,unknown
1499247936278,0,120,2.63671875E-5,37,67,37,23445,16747765,722,10182,9134,3388,1468,710,Tag0,unknown
1499247936278,0,92,2.021484375E-5,37,67,37,23445,16747765,722,10182,9134,3388,1468,710,Tag0,unknown
1499247936279,0,71,1.56005859375E-5,37,67,37,23445,16747765,722,10182,9134,3388,1468,710,Tag0,unknown
1499247936279,0,58,1.2744140625E-5,37,67,37,23445,16747765,722,10182,9134,3388,1468,710,Tag0,unknown
1499247936279,0,48,1.0546875E-5,37,67,37,23445,16747765,722,10182,9134,3388,1468,710,Tag0,unknown
1499247936280,0,49,1.07666015625E-5,37,67,37,23445,16747765,722,10182,9134,3388,1468,710,Tag0,unknown
1499247936280,0,60,1.318359375E-5,37,67,37,23445,16747765,722,10182,9134,3388,1468,710,Tag0,unknown
1499247936281,0,52,1.142578125E-5,37,67,37,23445,16747765,722,10182,9134,3388,1468,710,Tag0,unknown
1499247936281,0,25,5.4931640625E-6,37,67,37,23445,16747765,722,10182,9134,3388,1468,710,Tag0,unknown
1499247936282,0,9,1.9775390625E-6,37,67,37,23445,16747765,722,10182,9134,3388,1468,710,Tag0,unknown
1499247936282,0,11,2.4169921875E-6,37,67,37,23445,16747765,722,10182,9134,3388,1468,710,Tag0,unknown
1499247936283,0,28,6.15234375E-6,37,67,37,23445,16747765,722,10182,9134,3388,1468,710,Tag0,unknown
1499247936283,0,39,8.5693359375E-6,37,67,37,23445,16747765,722,10182,9134,3388,1468,710,Tag0,unknown
1499247936284,0,44,9.66796875E-6,37,67,37,23445,16747765,722,10182,9134,3388,1468,710,Tag0,unknown
1499247936284,0,51,1.1206054687499999E-5,37,67,37,23445,16747765,722,10182,9134,3388,1468,710,Tag0,unknown
1499247936285,0,35,7.6904296875E-6,37,67,37,23445,16747765,722,10182,9134,3388,1468,710,Tag0,unknown
1499247936285,0,17,3.7353515625000003E-6,37,67,37,23445,16747765,722,10182,9134,3388,1468,710,Tag0,unknown
1499247936286,0,29,6.3720703125E-6,37,67,37,23445,16747765,722,10182,9134,3388,1468,710,Tag0,unknown
1499247936286,0,52,1.142578125E-5,37,67,37,23445,16747765,722,10182,9134,3388,1468,710,Tag0,unknown
1499247936287,0,60,1.318359375E-5,37,67,37,23445,16747765,722,10182,9134,3388,1468,710,Tag0,unknown
