timestampMs,poorSignal,eegRawValue,eegRawValueVolts,attention,meditation,blinkStrength,delta,theta,alphaLow,alphaHigh,betaLow,betaHigh,gammaLow,gammaMid,tagEvent,location
1499247828193,0,119,2.6147460937500004E-5,44,77,44,120888,18916,9562,5279,4475,6341,5137,2906,Tag0,unknown
1499247828194,0,107,2.35107421875E-5,44,77,44,120888,18916,9562,5279,4475,6341,5137,2906,Tag0,unknown
1499247828194,0,109,2.39501953125E-5,44,77,44,120888,18916,9562,5279,4475,6341,5137,2906,Tag0,unknown
1499247828195,0,-128,-2.8125E-5,44,77,44,120888,18916,9562,5279,4475,6341,5137,2906,Tag0,unknown
1499247828196,0,105,2.30712890625E-5,44,77,44,120888,18916,9562,5279,4475,6341,5137,2906,Tag0,unknown
1499247828196,0,59,1.29638671875E-5,44,77,44,120888,18916,9562,5279,4475,6341,5137,2906,Tag0,unknown
1499247828196,0,50,1.0986328125E-5,44,77,44,120888,18916,9562,5279,4475,6341,5137,2906,Tag0,unknown
1499247828197,0,56,1.23046875E-5,44,77,44,120888,18916,9562,5279,4475,6341,5137,2906,Tag0,unknown
1499247828197,0,60,1.318359375E-5,44,77,44,120888,18916,9562,5279,4475,6341,5137,2906,Tag0,unknown
1499247828197,0,73,1.6040039062500002E-5,44,77,44,120888,18916,9562,5279,4475,6341,5137,2906,Tag0,unknown
1499247828197,0,104,2.28515625E-5,44,77,44,120888,18916,9562,5279,4475,6341,5137,2906,Tag0,unknown
1499247828197,0,114,2.5048828125000003E-5,44,77,44,120888,18916,9562,5279,4475,6341,5137,2906,Tag0,unknown
1499247828198,0,119,2.6147460937500004E-5,44,77,44,120888,18916,9562,5279,4475,6341,5137,2906,Tag0,unknown
1499247828198,0,-128,-2.8125E-5,44,77,44,120888,18916,9562,5279,4475,6341,5137,2906,Tag0,unknown
1499247828198,0,112,2.4609375E-5,44,77,44,120888,18916,9562,5279,4475,6341,5137,2906,Tag0,unknown
1499247828198,0,73,1.6040039062500002E-5,44,77,44,120888,18916,9562,5279,4475,6341,5137,2906,Tag0,unknown
1499247828199,0,50,1.0986328125E-5,44,77,44,120888,18916,9562,5279,4475,6341,5137,2906,Tag0,unknown
1499247828199,0,58,1.2744140625E-5,44,77,44,120888,18916,9562,5279,4475,6341,5137,2906,Tag0,unknown
1499247828199,0,64,1.40625E-5,44,77,44,120888,18916,9562,5279,4475,6341,5137,2906,Tag0,unknown
1499247828199,0,77,1.69189453125E-5,44,77,44,120888,18916,9562,5279,4475,6341,5137,2906,Tag0,unknown
1499247828199,0,-123,-2.70263671875E-5,44,77,44,120888,18916,9562,5279,4475,6341,5137,2906,Tag0,unknown
1499247828200,0,-121,-2.6586914062500003E-5,44,77,44,120888,18916,9562,5279,4475,6341,5137,2906,Tag0,unknown
1499247828200,0,88,1.93359375E-5,44,77,44,120888,18916,9562,5279,4475,6341,5137,2906,Tag0,unknown
1499247828200,0,50,1.0986328125E-5,44,77,44,120888,18916,9562,5279,4475,6341,5137,2906,Tag0,unknown
1499247828201,0,64,1.40625E-5,44,77,44,120888,18916,9562,5279,4475,6341,5137,2906,Tag0,unknown
1499247828201,0,96,2.109375E-5,44,77,44,120888,18916,9562,5279,4475,6341,5137,2906,Tag0,unknown
1499247828201,0,120,2.63671875E-5,44,77,44,120888,18916,9562,5279,4475,6341,5137,2906,Tag0,unknown
1499247828201,0,112,2.4609375E-5,44,77,44,120888,18916,9562,5279,4475,6341,5137,2906,Tag0,unknown
1499247828201,0,71,1.56005859375E-5,44,77,44,120888,18916,9562,5279,4475,6341,5137,2906,Tag0,unknown
1499247828202,0,32,7.03125E-6,44,77,44,120888,18916,9562,5279,4475,6341,5137,2906,Tag0,unknown
1499247828202,0,17,3.7353515625000003E-6,44,77,44,120888,18916,9562,5279,4475,6341,5137,2906,Tag0,unknown
1499247828202,0,33,7.2509765625E-6,44,77,44,120888,18916,9562,5279,4475,6341,5137,2906,Tag0,unknown
1499247828202,0,64,1.40625E-5,44,77,44,120888,18916,9562,5279,4475,6341,5137,2906,Tag0,unknown
1499247828202,0,87,1.91162109375E-5,44,77,44,120888,18916,9562,5279,4475,6341,5137,2906,Tag0,unknown
1499247828203,0,104,2.28515625E-5,44,77,44,120888,18916,9562,5279,4475,6341,5137,2906,Tag0,unknown
1499247828203,0,93,2.04345703125E-5,44,77,44,120888,18916,9562,5279,4475,6341,5137,2906,Tag0,unknown
1499247828203,0,81,1.77978515625E-5,44,77,44,120888,18916,9562,5279,4475,6341,5137,2906,Tag0,unknown
1499247828203,0,85,1.86767578125E-5,44,77,44,120888,18916,9562,5279,4475,6341,5137,2906,Tag0,unknown
1499247828204,0,88,1.93359375E-5,44,77,44,120888,18916,9562,5279,4475,6341,5137,2906,Tag0,unknown
1499247828204,0,73,1.6040039062500002E-5,44,77,44,120888,18916,9562,5279,4475,6341,5137,2906,Tag0,unknown
1499247828204,0,49,1.07666015625E-5,44,77,44,120888,18916,9562,5279,4475,6341,5137,2906,Tag0,unknown
1499247828204,0,5,1.0986328125E-6,44,77,44,120888,18916,9562,5279,4475,6341,5137,2906,Tag0,unknown
1499247828204,0,-269,-5.9106445312499996E-5,44,77,44,120888,18916,9562,5279,4475,6341,5137,2906,Tag0,unknown
1499247828205,0,-257,-5.64697265625E-5,44,77,44,120888,18916,9562,5279,4475,6341,5137,2906,Tag0,unknown
1499247828205,0,38,8.349609375E-6,44,77,44,120888,18916,9562,5279,4475,6341,5137,2906,Tag0,unknown
1499247828205,0,87,1.91162109375E-5,44,77,44,120888,18916,9562,5279,4475,6341,5137,2906,Tag0,unknown
1499247828205,0,91,1.99951171875E-5,44,77,44,120888,18916,9562,5279,4475,6341,5137,2906,Tag0,unknown
1499247828206,0,65,1.42822265625E-5,44,77,44,120888,18916,9562,5279,4475,6341,5137,2906,Tag0,unknown
1499247828206,0,59,1.29638671875E-5,44,77,44,120888,18916,9562,5279,4475,6341,5137,2906,Tag0,unknown
1499247828206,0,90,1.9775390625E-5,44,77,44,120888,18916,9562,5279,4475,6341,5137,2906,Tag0,unknown
1499247828206,0,-127,-2.79052734375E-5,44,77,44,120888,18916,9562,5279,4475,6341,5137,2906,Tag0,unknown
1499247828207,0,-108,-2.3730468750000002E-5,44,77,44,120888,18916,9562,5279,4475,6341,5137,2906,Tag0,unknown
1499247828207,0,-120,-2.63671875E-5,44,77,44,120888,18916,9562,5279,4475,6341,5137,2906,Tag0,unknown
1499247828207,0,98,2.1533203125E-5,44,77,44,120888,18916,9562,5279,4475,6341,5137,2906,Tag0,unknown
1499247828207,0,70,1.5380859375E-5,44,77,44,120888,18916,9562,5279,4475,6341,5137,2906,Tag0,unknown
1499247828208,0,72,1.58203125E-5,44,77,44,120888,18916,9562,5279,4475,6341,5137,2906,Tag0,unknown
1499247828208,0,97,2.13134765625E-5,44,77,44,120888,18916,9562,5279,4475,6341,5137,2906,Tag0,unknown
1499247828208,0,104,2.28515625E-5,44,77,44,120888,18916,9562,5279,4475,6341,5137,2906,Tag0,unknown
1499247828209,0,103,2.26318359375E-5,44,77,44,120888,18916,9562,5279,4475,6341,5137,2906,Tag0,unknown
1499247828209,0,86,1.8896484375000003E-5,44,77,44,120888,18916,9562,5279,4475,6341,5137,2906,Tag0,unknown
1499247828209,0,68,1.4941406250000001E-5,44,77,44,120888,18916,9562,5279,4475,6341,5137,2906,Tag0,unknown
1499247828209,0,68,1.4941406250000001E-5,44,77,44,120888,18916,9562,5279,4475,6341,5137,2906,Tag0,unknown
1499247828209,0,69,1.51611328125E-5,44,77,44,120888,18916,9562,5279,4475,6341,5137,2906,Tag0,unknown
1499247828210,0,55,1.20849609375E-5,44,77,44,120888,18916,9562,5279,4475,6341,5137,2906,Tag0,unknown
1499247828210,0,42,9.228515625000002E-6,44,77,44,120888,18916,9562,5279,4475,6341,5137,2906,Tag0,unknown
1499247828210,0,72,1.58203125E-5,44,77,44,120888,18916,9562,5279,4475,6341,5137,2906,Tag0,unknown
1499247828210,0,107,2.35107421875E-5,44,77,44,120888,18916,9562,5279,4475,6341,5137,2906,Tag0,unknown
1499247828211,0,100,2.197265625E-5,44,77,44,120888,18916,9562,5279,4475,6341,5137,2906,Tag0,unknown
1499247828211,0,75,1.64794921875E-5,44,77,44,120888,18916,9562,5279,4475,6341,5137,2906,Tag0,unknown
1499247828211,0,71,1.56005859375E-5,44,77,44,120888,18916,9562,5279,4475,6341,5137,2906,Tag0,unknown
1499247828211,0,67,1.4721679687500002E-5,44,77,44,120888,18916,9562,5279,4475,6341,5137,2906,Tag0,unknown
1499247828212,0,80,1.7578125E-5,44,77,44,120888,18916,9562,5279,4475,6341,5137,2906,Tag0,unknown
1499247828212,0,91,1.99951171875E-5,44,77,44,120888,18916,9562,5279,4475,6341,5137,2906,Tag0,unknown
1499247828212,0,99,2.1752929687500003E-5,44,77,44,120888,18916,9562,5279,4475,6341,5137,2906,Tag0,unknown
1499247828212,0,100,2.197265625E-5,44,77,44,120888,18916,9562,5279,4475,6341,5137,2906,Tag0,unknown
1499247828212,0,82,1.8017578124999998E-5,44,77,44,120888,18916,9562,5279,4475,6341,5137,2906,Tag0,unknown
1499247828213,0,55,1.20849609375E-5,44,77,44,120888,18916,9562,5279,4475,6341,5137,2906,Tag0,unknown
1499247828213,0,54,1.1865234375000001E-5,44,77,44,120888,18916,9562,5279,4475,6341,5137,2906,Tag0,unknown
1499247828213,0,70,1.5380859375E-5,44,77,44,120888,18916,9562,5279,4475,6341,5137,2906,Tag0,unknown
1499247828213,0,69,1.51611328125E-5,44,77,44,120888,18916,9562,5279,4475,6341,5137,2906,Tag0,unknown
1499247828214,0,35,7.6904296875E-6,44,77,44,120888,18916,9562,5279,4475,6341,5137,2906,Tag0,unknown
1499247828214,0,12,2.63671875E-6,44,77,44,120888,18916,9562,5279,4475,6341,5137,2906,Tag0,unknown
1499247828214,0,12,2.63671875E-6,44,77,44,120888,18916,9562,5279,4475,6341,5137,2906,Tag0,unknown
1499247828214,0,19,4.1748046875E-6,44,77,44,120888,18916,9562,5279,4475,6341,5137,2906,Tag0,unknown
1499247828214,0,9,1.9775390625E-6,44,77,44,120888,18916,9562,5279,4475,6341,5137,2906,Tag0,unknown
1499247828215,0,5,1.0986328125E-6,44,77,44,120888,18916,9562,5279,4475,6341,5137,2906,Tag0,unknown
1499247828215,0,25,5.4931640625E-6,44,77,44,120888,18916,9562,5279,4475,6341,5137,2906,Tag0,unknown
1499247828215,0,44,9.66796875E-6,44,77,44,120888,18916,9562,5279,4475,6341,5137,2906,Tag0,unknown
1499247828215,0,53,1.1645507812500002E-5,44,77,44,120888,18916,9562,5279,4475,6341,5137,2906,Tag0,unknown
1499247828215,0,49,1.07666015625E-5,44,77,44,120888,18916,9562,5279,4475,6341,5137,2906,Tag0,unknown
1499247828216,0,25,5.4931640625E-6,44,77,44,120888,18916,9562,5279,4475,6341,5137,2906,Tag0,unknown
1499247828216,0,19,4.1748046875E-6,44,77,44,120888,18916,9562,5279,4475,6341,5137,2906,Tag0,unknown
1499247828216,0,52,1.142578125E-5,44,77,44,120888,18916,9562,5279,4475,6341,5137,2906,Tag0,unknown
1499247828217,0,91,1.99951171875E-5,44,77,44,120888,18916,9562,5279,4475,6341,5137,2906,Tag0,unknown
1499247828217,0,90,1.9775390625E-5,44,77,44,120888,18916,9562,5279,4475,6341,5137,2906,Tag0,unknown
1499247828217,0,56,1.23046875E-5,44,77,44,120888,18916,9562,5279,4475,6341,5137,2906,Tag0,unknown
1499247828217,0,16,3.515625E-6,44,77,44,120888,18916,9562,5279,4475,6341,5137,2906,Tag0,unknown
1499247828217,0,4,8.7890625E-7,44,77,44,120888,18916,9562,5279,4475,6341,5137,2906,Tag0,unknown
1499247828218,0,22,4.833984375E-6,44,77,44,120888,18916,9562,5279,4475,6341,5137,2906,Tag0,unknown
1499247828219,0,57,1.2524414062500001E-5,44,77,44,120888,18916,9562,5279,4475,6341,5137,2906,Tag0,unknown
1499247828219,0,90,1.9775390625E-5,44,77,44,120888,18916,9562,5279,4475,6341,5137,2906,Tag0,unknown
1499247828219,0,120,2.63671875E-5,44,77,44,120888,18916,9562,5279,4475,6341,5137,2906,Tag0,unknown
1499247828219,0,-126,-2.7685546875E-5,44,77,44,120888,18916,9562,5279,4475,6341,5137,2906,Tag0,unknown
1499247828219,0,91,1.99951171875E-5,44,77,44,120888,18916,9562,5279,4475,6341,5137,2906,Tag0,unknown
1499247828219,0,60,1.318359375E-5,44,77,44,120888,18916,9562,5279,4475,6341,5137,2906,Tag0,unknown
1499247828220,0,59,1.29638671875E-5,44,77,44,120888,18916,9562,5279,4475,6341,5137,2906,Tag0,unknown
1499247828220,0,59,1.29638671875E-5,44,77,44,120888,18916,9562,5279,4475,6341,5137,2906,Tag0,unknown
1499247828220,0,38,8.349609375E-6,44,77,44,120888,18916,9562,5279,4475,6341,5137,2906,Tag0,unknown
1499247828220,0,2,4.39453125E-7,44,77,44,120888,18916,9562,5279,4475,6341,5137,2906,Tag0,unknown
1499247828220,0,1,2.197265625E-7,44,77,44,120888,18916,9562,5279,4475,6341,5137,2906,Tag0,unknown
1499247828220,0,29,6.3720703125E-6,44,77,44,120888,18916,9562,5279,4475,6341,5137,2906,Tag0,unknown
1499247828220,0,58,1.2744140625E-5,44,77,44,120888,18916,9562,5279,4475,6341,5137,2906,Tag0,unknown
1499247828221,0,57,1.2524414062500001E-5,44,77,44,120888,18916,9562,5279,4475,6341,5137,2906,Tag0,unknown
1499247828221,0,23,5.0537109375E-6,44,77,44,120888,18916,9562,5279,4475,6341,5137,2906,Tag0,unknown
1499247828221,0,-259,-5.69091796875E-5,44,77,44,120888,18916,9562,5279,4475,6341,5137,2906,Tag0,unknown
1499247828221,0,2,4.39453125E-7,44,77,44,120888,18916,9562,5279,4475,6341,5137,2906,Tag0,unknown
1499247828221,0,17,3.7353515625000003E-6,44,77,44,120888,18916,9562,5279,4475,6341,5137,2906,Tag0,unknown
1499247828221,0,36,7.91015625E-6,44,77,44,120888,18916,9562,5279,4475,6341,5137,2906,Tag0,unknown
1499247828221,0,43,9.448242187500001E-6,44,77,44,120888,18916,9562,5279,4475,6341,5137,2906,Tag0,unknown
1499247828222,0,41,9.008789062499999E-6,44,77,44,120888,18916,9562,5279,4475,6341,5137,2906,Tag0,unknown
1499247828222,0,42,9.228515625000002E-6,44,77,44,120888,18916,9562,5279,4475,6341,5137,2906,Tag0,unknown
1499247828222,0,45,9.8876953125E-6,44,77,44,120888,18916,9562,5279,4475,6341,5137,2906,Tag0,unknown
1499247828222,0,38,8.349609375E-6,44,77,44,120888,18916,9562,5279,4475,6341,5137,2906,Tag0,unknown
1499247828222,0,16,3.515625E-6,44,77,44,120888,18916,9562,5279,4475,6341,5137,2906,Tag0,unknown
1499247828222,0,-264,-5.80078125E-5,44,77,44,120888,18916,9562,5279,4475,6341,5137,2906,Tag0,unknown
1499247828222,0,-257,-5.64697265625E-5,44,77,44,120888,18916,9562,5279,4475,6341,5137,2906,Tag0,unknown
1499247828222,0,36,7.91015625E-6,44,77,44,120888,18916,9562,5279,4475,6341,5137,2906,Tag0,unknown
1499247828223,0,73,1.6040039062500002E-5,44,77,44,120888,18916,9562,5279,4475,6341,5137,2906,Tag0,unknown
1499247828223,0,77,1.69189453125E-5,44,77,44,120888,18916,9562,5279,4475,6341,5137,2906,Tag0,unknown
1499247828223,0,43,9.448242187500001E-6,44,77,44,120888,18916,9562,5279,4475,6341,5137,2906,Tag0,unknown
1499247828223,0,21,4.614257812500001E-6,44,77,44,120888,18916,9562,5279,4475,6341,5137,2906,Tag0,unknown
1499247828223,0,37,8.1298828125E-6,44,77,44,120888,18916,9562,5279,4475,6341,5137,2906,Tag0,unknown
1499247828223,0,60,1.318359375E-5,44,77,44,120888,18916,9562,5279,4475,6341,5137,2906,Tag0,unknown
1499247828224,0,81,1.77978515625E-5,44,77,44,120888,18916,9562,5279,4475,6341,5137,2906,Tag0,unknown
1499247828224,0,70,1.5380859375E-5,44,77,44,120888,18916,9562,5279,4475,6341,5137,2906,Tag0,unknown
1499247828224,0,48,1.0546875E-5,44,77,44,120888,18916,9562,5279,4475,6341,5137,2906,Tag0,unknown
1499247828224,0,41,9.008789062499999E-6,44,77,44,120888,18916,9562,5279,4475,6341,5137,2906,Tag0,unknown
1499247828224,0,57,1.2524414062500001E-5,44,77,44,120888,18916,9562,5279,4475,6341,5137,2906,Tag0,unknown
1499247828224,0,76,1.669921875E-5,44,77,44,120888,18916,9562,5279,4475,6341,5137,2906,Tag0,unknown
1499247828224,0,97,2.13134765625E-5,44,77,44,120888,18916,9562,5279,4475,6341,5137,2906,Tag0,unknown
1499247828225,0,99,2.1752929687500003E-5,44,77,44,120888,18916,9562,5279,4475,6341,5137,2906,Tag0,unknown
1499247828225,0,73,1.6040039062500002E-5,44,77,44,120888,18916,9562,5279,4475,6341,5137,2906,Tag0,unknown
1499247828225,0,44,9.66796875E-6,44,77,44,120888,18916,9562,5279,4475,6341,5137,2906,Tag0,unknown
1499247828225,0,36,7.91015625E-6,44,77,44,120888,18916,9562,5279,4475,6341,5137,2906,Tag0,unknown
1499247828225,0,49,1.07666015625E-5,44,77,44,120888,18916,9562,5279,4475,6341,5137,2906,Tag0,unknown
1499247828226,0,73,1.6040039062500002E-5,44,77,44,120888,18916,9562,5279,4475,6341,5137,2906,Tag0,unknown
1499247828226,0,72,1.58203125E-5,44,77,44,120888,18916,9562,5279,4475,6341,5137,2906,Tag0,unknown
1499247828226,0,71,1.56005859375E-5,44,77,44,120888,18916,9562,5279,4475,6341,5137,2906,Tag0,unknown
1499247828227,0,70,1.5380859375E-5,44,77,44,120888,18916,9562,5279,4475,6341,5137,2906,Tag0,unknown
1499247828227,0,52,1.142578125E-5,44,77,44,120888,18916,9562,5279,4475,6341,5137,2906,Tag0,unknown
1499247828227,0,29,6.3720703125E-6,44,77,44,120888,18916,9562,5279,4475,6341,5137,2906,Tag0,unknown
1499247828227,0,34,7.4707031250000005E-6,44,77,44,120888,18916,9562,5279,4475,6341,5137,2906,Tag0,unknown
1499247828227,0,52,1.142578125E-5,44,77,44,120888,18916,9562,5279,4475,6341,5137,2906,Tag0,unknown
1499247828227,0,82,1.8017578124999998E-5,44,77,44,120888,18916,9562,5279,4475,6341,5137,2906,Tag0,unknown
1499247828227,0,99,2.1752929687500003E-5,44,77,44,120888,18916,9562,5279,4475,6341,5137,2906,Tag0,unknown
1499247828228,0,71,1.56005859375E-5,44,77,44,120888,18916,9562,5279,4475,6341,5137,2906,Tag0,unknown
1499247828228,0,38,8.349609375E-6,44,77,44,120888,18916,9562,5279,4475,6341,5137,2906,Tag0,unknown
1499247828228,0,35,7.6904296875E-6,44,77,44,120888,18916,9562,5279,4475,6341,5137,2906,Tag0,unknown
1499247828228,0,55,1.20849609375E-5,44,77,44,120888,18916,9562,5279,4475,6341,5137,2906,Tag0,unknown
1499247828228,0,75,1.64794921875E-5,44,77,44,120888,18916,9562,5279,4475,6341,5137,2906,Tag0,unknown
1499247828228,0,90,1.9775390625E-5,44,77,44,120888,18916,9562,5279,4475,6341,5137,2906,Tag0,unknown
1499247828229,0,102,2.2412109374999998E-5,44,77,44,120888,18916,9562,5279,4475,6341,5137,2906,Tag0,unknown
1499247828229,0,104,2.28515625E-5,44,77,44,120888,18916,9562,5279,4475,6341,5137,2906,Tag0,unknown
1499247828229,0,91,1.99951171875E-5,44,77,44,120888,18916,9562,5279,4475,6341,5137,2906,Tag0,unknown
1499247828229,0,66,1.4501953125E-5,44,77,44,120888,18916,9562,5279,4475,6341,5137,2906,Tag0,unknown
1499247828229,0,66,1.4501953125E-5,44,77,44,120888,18916,9562,5279,4475,6341,5137,2906,Tag0,unknown
1499247828229,0,97,2.13134765625E-5,44,77,44,120888,18916,9562,5279,4475,6341,5137,2906,Tag0,unknown
1499247828229,0,104,2.28515625E-5,44,77,44,120888,18916,9562,5279,4475,6341,5137,2906,Tag0,unknown
1499247828229,0,84,1.8457031250000004E-5,44,77,44,120888,18916,9562,5279,4475,6341,5137,2906,Tag0,unknown
1499247828230,0,60,1.318359375E-5,44,77,44,120888,18916,9562,5279,4475,6341,5137,2906,Tag0,unknown
1499247828230,0,55,1.20849609375E-5,44,77,44,120888,18916,9562,5279,4475,6341,5137,2906,Tag0,unknown
1499247828230,0,48,1.0546875E-5,44,77,44,120888,18916,9562,5279,4475,6341,5137,2906,Tag0,unknown
1499247828230,0,51,1.1206054687499999E-5,44,77,44,120888,18916,9562,5279,4475,6341,5137,2906,Tag0,unknown
1499247828230,0,86,1.8896484375000003E-5,44,77,44,120888,18916,9562,5279,4475,6341,5137,2906,Tag0,unknown
1499247828230,0,113,2.48291015625E-5,44,77,44,120888,18916,9562,5279,4475,6341,5137,2906,Tag0,unknown
1499247828230,0,90,1.9775390625E-5,44,77,44,120888,18916,9562,5279,4475,6341,5137,2906,Tag0,unknown
1499247828231,0,72,1.58203125E-5,44,77,44,120888,18916,9562,5279,4475,6341,5137,2906,Tag0,unknown
1499247828231,0,70,1.5380859375E-5,44,77,44,120888,18916,9562,5279,4475,6341,5137,2906,Tag0,unknown
1499247828231,0,89,1.95556640625E-5,44,77,44,120888,18916,9562,5279,4475,6341,5137,2906,Tag0,unknown
1499247828231,0,-122,-2.6806640625E-5,44,77,44,120888,18916,9562,5279,4475,6341,5137,2906,Tag0,unknown
1499247828231,0,-100,-2.197265625E-5,44,77,44,120888,18916,9562,5279,4475,6341,5137,2906,Tag0,unknown
1499247828231,0,-100,-2.197265625E-5,44,77,44,120888,18916,9562,5279,4475,6341,5137,2906,Tag0,unknown
1499247828231,0,-116,-2.548828125E-5,44,77,44,120888,18916,9562,5279,4475,6341,5137,2906,Tag0,unknown
1499247828231,0,108,2.3730468750000002E-5,44,77,44,120888,18916,9562,5279,4475,6341,5137,2906,Tag0,unknown
1499247828232,0,71,1.56005859375E-5,44,77,44,120888,18916,9562,5279,4475,6341,5137,2906,Tag0,unknown
1499247828232,0,44,9.66796875E-6,44,77,44,120888,18916,9562,5279,4475,6341,5137,2906,Tag0,unknown
1499247828232,0,44,9.66796875E-6,44,77,44,120888,18916,9562,5279,4475,6341,5137,2906,Tag0,unknown
1499247828232,0,60,1.318359375E-5,44,77,44,120888,18916,9562,5279,4475,6341,5137,2906,Tag0,unknown
1499247828232,0,84,1.8457031250000004E-5,44,77,44,120888,18916,9562,5279,4475,6341,5137,2906,Tag0,unknown
1499247828232,0,90,1.9775390625E-5,44,77,44,120888,18916,9562,5279,4475,6341,5137,2906,Tag0,unknown
1499247828232,0,74,1.6259765625E-5,44,77,44,120888,18916,9562,5279,4475,6341,5137,2906,Tag0,unknown
1499247828233,0,54,1.1865234375000001E-5,44,77,44,120888,18916,9562,5279,4475,6341,5137,2906,Tag0,unknown
1499247828233,0,60,1.318359375E-5,44,77,44,120888,18916,9562,5279,4475,6341,5137,2906,Tag0,unknown
1499247828233,0,84,1.8457031250000004E-5,44,77,44,120888,18916,9562,5279,4475,6341,5137,2906,Tag0,unknown
1499247828233,0,100,2.197265625E-5,44,77,44,120888,18916,9562,5279,4475,6341,5137,2906,Tag0,unknown
1499247828233,0,96,2.109375E-5,44,77,44,120888,18916,9562,5279,4475,6341,5137,2906,Tag0,unknown
1499247828233,0,99,2.1752929687500003E-5,44,77,44,120888,18916,9562,5279,4475,6341,5137,2906,Tag0,unknown
1499247828233,0,108,2.3730468750000002E-5,44,77,44,120888,18916,9562,5279,4475,6341,5137,2906,Tag0,unknown
1499247828233,0,116,2.548828125E-5,44,77,44,120888,18916,9562,5279,4475,6341,5137,2906,Tag0,unknown
1499247828234,0,108,2.3730468750000002E-5,44,77,44,120888,18916,9562,5279,4475,6341,5137,2906,Tag0,unknown
1499247828234,0,117,2.5708007812499998E-5,44,77,44,120888,18916,9562,5279,4475,6341,5137,2906,Tag0,unknown
1499247828234,0,-121,-2.6586914062500003E-5,44,77,44,120888,18916,9562,5279,4475,6341,5137,2906,Tag0,unknown
1499247828234,0,122,2.6806640625E-5,44,77,44,120888,18916,9562,5279,4475,6341,5137,2906,Tag0,unknown
1499247828234,0,101,2.2192382812500002E-5,44,77,44,120888,18916,9562,5279,4475,6341,5137,2906,Tag0,unknown
1499247828234,0,119,2.6147460937500004E-5,44,77,44,120888,18916,9562,5279,4475,6341,5137,2906,Tag0,unknown
1499247828234,0,-127,-2.79052734375E-5,44,77,44,120888,18916,9562,5279,4475,6341,5137,2906,Tag0,unknown
1499247828235,0,107,2.35107421875E-5,44,77,44,120888,18916,9562,5279,4475,6341,5137,2906,Tag0,unknown
1499247828235,0,91,1.99951171875E-5,44,77,44,120888,18916,9562,5279,4475,6341,5137,2906,Tag0,unknown
1499247828235,0,109,2.39501953125E-5,44,77,44,120888,18916,9562,5279,4475,6341,5137,2906,Tag0,unknown
1499247828235,0,-127,-2.79052734375E-5,44,77,44,120888,18916,9562,5279,4475,6341,5137,2906,Tag0,unknown
1499247828235,0,112,2.4609375E-5,44,77,44,120888,18916,9562,5279,4475,6341,5137,2906,Tag0,unknown
1499247828235,0,92,2.021484375E-5,44,77,44,120888,18916,9562,5279,4475,6341,5137,2906,Tag0,unknown
1499247828235,0,83,1.82373046875E-5,44,77,44,120888,18916,9562,5279,4475,6341,5137,2906,Tag0,unknown
1499247828236,0,68,1.4941406250000001E-5,44,77,44,120888,18916,9562,5279,4475,6341,5137,2906,Tag0,unknown
1499247828236,0,44,9.66796875E-6,44,77,44,120888,18916,9562,5279,4475,6341,5137,2906,Tag0,unknown
1499247828236,0,64,1.40625E-5,44,77,44,120888,18916,9562,5279,4475,6341,5137,2906,Tag0,unknown
1499247828236,0,99,2.1752929687500003E-5,44,77,44,120888,18916,9562,5279,4475,6341,5137,2906,Tag0,unknown
1499247828236,0,106,2.3291015625000003E-5,44,77,44,120888,18916,9562,5279,4475,6341,5137,2906,Tag0,unknown
1499247828236,0,83,1.82373046875E-5,44,77,44,120888,18916,9562,5279,4475,6341,5137,2906,Tag0,unknown
1499247828236,0,51,1.1206054687499999E-5,44,77,44,120888,18916,9562,5279,4475,6341,5137,2906,Tag0,unknown
1499247828237,0,40,8.7890625E-6,44,77,44,120888,18916,9562,5279,4475,6341,5137,2906,Tag0,unknown
1499247828237,0,53,1.1645507812500002E-5,44,77,44,120888,18916,9562,5279,4475,6341,5137,2906,Tag0,unknown
1499247828237,0,71,1.56005859375E-5,44,77,44,120888,18916,9562,5279,4475,6341,5137,2906,Tag0,unknown
1499247828237,0,71,1.56005859375E-5,44,77,44,120888,18916,9562,5279,4475,6341,5137,2906,Tag0,unknown
1499247828237,0,58,1.2744140625E-5,44,77,44,120888,18916,9562,5279,4475,6341,5137,2906,Tag0,unknown
1499247828237,0,71,1.56005859375E-5,44,77,44,120888,18916,9562,5279,4475,6341,5137,2906,Tag0,unknown
1499247828237,0,68,1.4941406250000001E-5,44,77,44,120888,18916,9562,5279,4475,6341,5137,2906,Tag0,unknown
1499247828237,0,65,1.42822265625E-5,44,77,44,120888,18916,9562,5279,4475,6341,5137,2906,Tag0,unknown
1499247828238,0,86,1.8896484375000003E-5,44,77,44,120888,18916,9562,5279,4475,6341,5137,2906,Tag0,unknown
1499247828238,0,92,2.021484375E-5,44,77,44,120888,18916,9562,5279,4475,6341,5137,2906,Tag0,unknown
1499247828238,0,76,1.669921875E-5,44,77,44,120888,18916,9562,5279,4475,6341,5137,2906,Tag0,unknown
1499247828238,0,51,1.1206054687499999E-5,44,77,44,120888,18916,9562,5279,4475,6341,5137,2906,Tag0,unknown
1499247828238,0,32,7.03125E-6,44,77,44,120888,18916,9562,5279,4475,6341,5137,2906,Tag0,unknown
1499247828238,0,24,5.2734375E-6,44,77,44,120888,18916,9562,5279,4475,6341,5137,2906,Tag0,unknown
1499247828238,0,44,9.66796875E-6,44,77,44,120888,18916,9562,5279,4475,6341,5137,2906,Tag0,unknown
1499247828239,0,59,1.29638671875E-5,44,77,44,120888,18916,9562,5279,4475,6341,5137,2906,Tag0,unknown
1499247828239,0,66,1.4501953125E-5,44,77,44,120888,18916,9562,5279,4475,6341,5137,2906,Tag0,unknown
1499247828239,0,60,1.318359375E-5,44,77,44,120888,18916,9562,5279,4475,6341,5137,2906,Tag0,unknown
1499247828239,0,72,1.58203125E-5,44,77,44,120888,18916,9562,5279,4475,6341,5137,2906,Tag0,unknown
1499247828239,0,87,1.91162109375E-5,44,77,44,120888,18916,9562,5279,4475,6341,5137,2906,Tag0,unknown
1499247828239,0,81,1.77978515625E-5,44,77,44,120888,18916,9562,5279,4475,6341,5137,2906,Tag0,unknown
1499247828239,0,70,1.5380859375E-5,44,77,44,120888,18916,9562,5279,4475,6341,5137,2906,Tag0,unknown
1499247828240,0,65,1.42822265625E-5,44,77,44,120888,18916,9562,5279,4475,6341,5137,2906,Tag0,unknown
1499247828240,0,80,1.7578125E-5,44,77,44,120888,18916,9562,5279,4475,6341,5137,2906,Tag0,unknown
1499247828240,0,91,1.99951171875E-5,44,77,44,120888,18916,9562,5279,4475,6341,5137,2906,Tag0,unknown
1499247828240,0,73,1.6040039062500002E-5,44,77,44,120888,18916,9562,5279,4475,6341,5137,2906,Tag0,unknown
1499247828240,0,66,1.4501953125E-5,44,77,44,120888,18916,9562,5279,4475,6341,5137,2906,Tag0,unknown
1499247828240,0,81,1.77978515625E-5,44,77,44,120888,18916,9562,5279,4475,6341,5137,2906,Tag0,unknown
1499247828240,0,103,2.26318359375E-5,44,77,44,120888,18916,9562,5279,4475,6341,5137,2906,Tag0,unknown
1499247828241,0,108,2.3730468750000002E-5,44,77,44,120888,18916,9562,5279,4475,6341,5137,2906,Tag0,unknown
1499247828241,0,74,1.6259765625E-5,44,77,44,120888,18916,9562,5279,4475,6341,5137,2906,Tag0,unknown
1499247828241,0,52,1.142578125E-5,44,77,44,120888,18916,9562,5279,4475,6341,5137,2906,Tag0,unknown
1499247828241,0,64,1.40625E-5,44,77,44,120888,18916,9562,5279,4475,6341,5137,2906,Tag0,unknown
1499247828241,0,69,1.51611328125E-5,44,77,44,120888,18916,9562,5279,4475,6341,5137,2906,Tag0,unknown
1499247828241,0,56,1.23046875E-5,44,77,44,120888,18916,9562,5279,4475,6341,5137,2906,Tag0,unknown
1499247828241,0,50,1.0986328125E-5,44,77,44,120888,18916,9562,5279,4475,6341,5137,2906,Tag0,unknown
1499247828241,0,54,1.1865234375000001E-5,44,77,44,120888,18916,9562,5279,4475,6341,5137,2906,Tag0,unknown
1499247828242,0,65,1.42822265625E-5,44,77,44,120888,18916,9562,5279,4475,6341,5137,2906,Tag0,unknown
1499247828242,0,73,1.6040039062500002E-5,44,77,44,120888,18916,9562,5279,4475,6341,5137,2906,Tag0,unknown
1499247828242,0,73,1.6040039062500002E-5,44,77,44,120888,18916,9562,5279,4475,6341,5137,2906,Tag0,unknown
1499247828242,0,48,1.0546875E-5,44,77,44,120888,18916,9562,5279,4475,6341,5137,2906,Tag0,unknown
1499247828242,0,13,2.8564453125E-6,44,77,44,120888,18916,9562,5279,4475,6341,5137,2906,Tag0,unknown
1499247828242,0,13,2.8564453125E-6,44,77,44,120888,18916,9562,5279,4475,6341,5137,2906,Tag0,unknown
1499247828242,0,38,8.349609375E-6,44,77,44,120888,18916,9562,5279,4475,6341,5137,2906,Tag0,unknown
1499247828243,0,60,1.318359375E-5,44,77,44,120888,18916,9562,5279,4475,6341,5137,2906,Tag0,unknown
1499247828243,0,83,1.82373046875E-5,44,77,44,120888,18916,9562,5279,4475,6341,5137,2906,Tag0,unknown
1499247828243,0,88,1.93359375E-5,44,77,44,120888,18916,9562,5279,4475,6341,5137,2906,Tag0,unknown
1499247828243,0,73,1.6040039062500002E-5,44,77,44,120888,18916,9562,5279,4475,6341,5137,2906,Tag0,unknown
1499247828243,0,59,1.29638671875E-5,44,77,44,120888,18916,9562,5279,4475,6341,5137,2906,Tag0,unknown
1499247828243,0,56,1.23046875E-5,44,77,44,120888,18916,9562,5279,4475,6341,5137,2906,Tag0,unknown
1499247828243,0,53,1.1645507812500002E-5,44,77,44,120888,18916,9562,5279,4475,6341,5137,2906,Tag0,unknown
1499247828243,0,43,9.448242187500001E-6,44,77,44,120888,18916,9562,5279,4475,6341,5137,2906,Tag0,unknown
1499247828244,0,35,7.6904296875E-6,44,77,44,120888,18916,9562,5279,4475,6341,5137,2906,Tag0,unknown
1499247828244,0,36,7.91015625E-6,44,77,44,120888,18916,9562,5279,4475,6341,5137,2906,Tag0,unknown
1499247828244,0,52,1.142578125E-5,44,77,44,120888,18916,9562,5279,4475,6341,5137,2906,Tag0,unknown
1499247828244,0,44,9.66796875E-6,44,77,44,120888,18916,9562,5279,4475,6341,5137,2906,Tag0,unknown
1499247828244,0,20,4.39453125E-6,44,77,44,120888,18916,9562,5279,4475,6341,5137,2906,Tag0,unknown
1499247828244,0,21,4.614257812500001E-6,44,77,44,120888,18916,9562,5279,4475,6341,5137,2906,Tag0,unknown
1499247828244,0,39,8.5693359375E-6,44,77,44,120888,18916,9562,5279,4475,6341,5137,2906,Tag0,unknown
1499247828245,0,75,1.64794921875E-5,44,77,44,120888,18916,9562,5279,4475,6341,5137,2906,Tag0,unknown
1499247828245,0,101,2.2192382812500002E-5,44,77,44,120888,18916,9562,5279,4475,6341,5137,2906,Tag0,unknown
1499247828245,0,88,1.93359375E-5,44,77,44,120888,18916,9562,5279,4475,6341,5137,2906,Tag0,unknown
1499247828245,0,77,1.69189453125E-5,44,77,44,120888,18916,9562,5279,4475,6341,5137,2906,Tag0,unknown
1499247828245,0,80,1.7578125E-5,44,77,44,120888,18916,9562,5279,4475,6341,5137,2906,Tag0,unknown
1499247828245,0,87,1.91162109375E-5,44,77,44,120888,18916,9562,5279,4475,6341,5137,2906,Tag0,unknown
1499247828246,0,112,2.4609375E-5,44,77,44,120888,18916,9562,5279,4475,6341,5137,2906,Tag0,unknown
1499247828246,0,118,2.5927734375E-5,44,77,44,120888,18916,9562,5279,4475,6341,5137,2906,Tag0,unknown
1499247828246,0,104,2.28515625E-5,44,77,44,120888,18916,9562,5279,4475,6341,5137,2906,Tag0,unknown
1499247828246,0,85,1.86767578125E-5,44,77,44,120888,18916,9562,5279,4475,6341,5137,2906,Tag0,unknown
1499247828246,0,82,1.8017578124999998E-5,44,77,44,120888,18916,9562,5279,4475,6341,5137,2906,Tag0,unknown
1499247828246,0,77,1.69189453125E-5,44,77,44,120888,18916,9562,5279,4475,6341,5137,2906,Tag0,unknown
1499247828247,0,66,1.4501953125E-5,44,77,44,120888,18916,9562,5279,4475,6341,5137,2906,Tag0,unknown
1499247828247,0,57,1.2524414062500001E-5,44,77,44,120888,18916,9562,5279,4475,6341,5137,2906,Tag0,unknown
1499247828247,0,75,1.64794921875E-5,44,77,44,120888,18916,9562,5279,4475,6341,5137,2906,Tag0,unknown
1499247828247,0,117,2.5708007812499998E-5,44,77,44,120888,18916,9562,5279,4475,6341,5137,2906,Tag0,unknown
1499247828247,0,123,2.70263671875E-5,44,77,44,120888,18916,9562,5279,4475,6341,5137,2906,Tag0,unknown
1499247828247,0,114,2.5048828125000003E-5,44,77,44,120888,18916,9562,5279,4475,6341,5137,2906,Tag0,unknown
1499247828247,0,93,2.04345703125E-5,44,77,44,120888,18916,9562,5279,4475,6341,5137,2906,Tag0,unknown
1499247828248,0,61,1.34033203125E-5,44,77,44,120888,18916,9562,5279,4475,6341,5137,2906,Tag0,unknown
1499247828248,0,60,1.318359375E-5,44,77,44,120888,18916,9562,5279,4475,6341,5137,2906,Tag0,unknown
1499247828248,0,73,1.6040039062500002E-5,44,77,44,120888,18916,9562,5279,4475,6341,5137,2906,Tag0,unknown
1499247828248,0,70,1.5380859375E-5,44,77,44,120888,18916,9562,5279,4475,6341,5137,2906,Tag0,unknown
1499247828248,0,64,1.40625E-5,44,77,44,120888,18916,9562,5279,4475,6341,5137,2906,Tag0,unknown
1499247828248,0,49,1.07666015625E-5,44,77,44,120888,18916,9562,5279,4475,6341,5137,2906,Tag0,unknown
1499247828248,0,41,9.008789062499999E-6,44,77,44,120888,18916,9562,5279,4475,6341,5137,2906,Tag0,unknown
1499247828249,0,38,8.349609375E-6,44,77,44,120888,18916,9562,5279,4475,6341,5137,2906,Tag0,unknown
1499247828249,0,35,7.6904296875E-6,44,77,44,120888,18916,9562,5279,4475,6341,5137,2906,Tag0,unknown
1499247828249,0,52,1.142578125E-5,44,77,44,120888,18916,9562,5279,4475,6341,5137,2906,Tag0,unknown
1499247828249,0,68,1.4941406250000001E-5,44,77,44,120888,18916,9562,5279,4475,6341,5137,2906,Tag0,unknown
1499247828249,0,74,1.6259765625E-5,44,77,44,120888,18916,9562,5279,4475,6341,5137,2906,Tag0,unknown
1499247828249,0,85,1.86767578125E-5,44,77,44,120888,18916,9562,5279,4475,6341,5137,2906,Tag0,unknown
1499247828249,0,76,1.669921875E-5,44,77,44,120888,18916,9562,5279,4475,6341,5137,2906,Tag0,unknown
1499247828249,0,67,1.4721679687500002E-5,44,77,44,120888,18916,9562,5279,4475,6341,5137,2906,Tag0,unknown
1499247828250,0,59,1.29638671875E-5,44,77,44,120888,18916,9562,5279,4475,6341,5137,2906,Tag0,unknown
1499247828250,0,44,9.66796875E-6,44,77,44,120888,18916,9562,5279,4475,6341,5137,2906,Tag0,unknown
1499247828250,0,36,7.91015625E-6,44,77,44,120888,18916,9562,5279,4475,6341,5137,2906,Tag0,unknown
1499247828250,0,16,3.515625E-6,44,77,44,120888,18916,9562,5279,4475,6341,5137,2906,Tag0,unknown
1499247828250,0,0,0.0,44,77,44,120888,18916,9562,5279,4475,6341,5137,2906,Tag0,unknown
1499247828250,0,26,5.712890625E-6,44,77,44,120888,18916,9562,5279,4475,6341,5137,2906,Tag0,unknown
1499247828250,0,55,1.20849609375E-5,44,77,44,120888,18916,9562,5279,4475,6341,5137,2906,Tag0,unknown
1499247828251,0,50,1.0986328125E-5,44,77,44,120888,18916,9562,5279,4475,6341,5137,2906,Tag0,unknown
1499247828251,0,51,1.1206054687499999E-5,44,77,44,120888,18916,9562,5279,4475,6341,5137,2906,Tag0,unknown
1499247828251,0,57,1.2524414062500001E-5,44,77,44,120888,18916,9562,5279,4475,6341,5137,2906,Tag0,unknown
1499247828251,0,70,1.5380859375E-5,44,77,44,120888,18916,9562,5279,4475,6341,5137,2906,Tag0,unknown
1499247828251,0,71,1.56005859375E-5,44,77,44,120888,18916,9562,5279,4475,6341,5137,2906,Tag0,unknown
1499247828251,0,56,1.23046875E-5,44,77,44,120888,18916,9562,5279,4475,6341,5137,2906,Tag0,unknown
1499247828252,0,55,1.20849609375E-5,44,77,44,120888,18916,9562,5279,4475,6341,5137,2906,Tag0,unknown
1499247828252,0,50,1.0986328125E-5,44,77,44,120888,18916,9562,5279,4475,6341,5137,2906,Tag0,unknown
1499247828252,0,53,1.1645507812500002E-5,44,77,44,120888,18916,9562,5279,4475,6341,5137,2906,Tag0,unknown
1499247828252,0,57,1.2524414062500001E-5,44,77,44,120888,18916,9562,5279,4475,6341,5137,2906,Tag0,unknown
1499247828252,0,69,1.51611328125E-5,44,77,44,120888,18916,9562,5279,4475,6341,5137,2906,Tag0,unknown
1499247828252,0,88,1.93359375E-5,44,77,44,120888,18916,9562,5279,4475,6341,5137,2906,Tag0,unknown
1499247828252,0,90,1.9775390625E-5,44,77,44,120888,18916,9562,5279,4475,6341,5137,2906,Tag0,unknown
1499247828253,0,76,1.669921875E-5,44,77,44,120888,18916,9562,5279,4475,6341,5137,2906,Tag0,unknown
1499247828253,0,60,1.318359375E-5,44,77,44,120888,18916,9562,5279,4475,6341,5137,2906,Tag0,unknown
1499247828253,0,44,9.66796875E-6,44,77,44,120888,18916,9562,5279,4475,6341,5137,2906,Tag0,unknown
1499247828253,0,53,1.1645507812500002E-5,44,77,44,120888,18916,9562,5279,4475,6341,5137,2906,Tag0,unknown
1499247828253,0,66,1.4501953125E-5,44,77,44,120888,18916,9562,5279,4475,6341,5137,2906,Tag0,unknown
1499247828253,0,58,1.2744140625E-5,44,77,44,120888,18916,9562,5279,4475,6341,5137,2906,Tag0,unknown
1499247828253,0,52,1.142578125E-5,44,77,44,120888,18916,9562,5279,4475,6341,5137,2906,Tag0,unknown
1499247828253,0,56,1.23046875E-5,44,77,44,120888,18916,9562,5279,4475,6341,5137,2906,Tag0,unknown
1499247828254,0,70,1.5380859375E-5,44,77,44,120888,18916,9562,5279,4475,6341,5137,2906,Tag0,unknown
1499247828254,0,88,1.93359375E-5,44,77,44,120888,18916,9562,5279,4475,6341,5137,2906,Tag0,unknown
1499247828254,0,100,2.197265625E-5,44,77,44,120888,18916,9562,5279,4475,6341,5137,2906,Tag0,unknown
1499247828255,0,100,2.197265625E-5,44,77,44,120888,18916,9562,5279,4475,6341,5137,2906,Tag0,unknown
1499247828255,0,102,2.2412109374999998E-5,44,77,44,120888,18916,9562,5279,4475,6341,5137,2906,Tag0,unknown
1499247828255,0,112,2.4609375E-5,44,77,44,120888,18916,9562,5279,4475,6341,5137,2906,Tag0,unknown
1499247828255,0,97,2.13134765625E-5,44,77,44,120888,18916,9562,5279,4475,6341,5137,2906,Tag0,unknown
1499247828255,0,60,1.318359375E-5,44,77,44,120888,18916,9562,5279,4475,6341,5137,2906,Tag0,unknown
1499247828256,0,18,3.955078125E-6,44,77,44,120888,18916,9562,5279,4475,6341,5137,2906,Tag0,unknown
1499247828256,0,0,0.0,44,77,44,120888,18916,9562,5279,4475,6341,5137,2906,Tag0,unknown
1499247828256,0,8,1.7578125E-6,44,77,44,120888,18916,9562,5279,4475,6341,5137,2906,Tag0,unknown
1499247828256,0,12,2.63671875E-6,44,77,44,120888,18916,9562,5279,4475,6341,5137,2906,Tag0,unknown
1499247828256,0,5,1.0986328125E-6,44,77,44,120888,18916,9562,5279,4475,6341,5137,2906,Tag0,unknown
1499247828256,0,2,4.39453125E-7,44,77,44,120888,18916,9562,5279,4475,6341,5137,2906,Tag0,unknown
1499247828257,0,19,4.1748046875E-6,44,77,44,120888,18916,9562,5279,4475,6341,5137,2906,Tag0,unknown
1499247828257,0,44,9.66796875E-6,44,77,44,120888,18916,9562,5279,4475,6341,5137,2906,Tag0,unknown
1499247828257,0,68,1.4941406250000001E-5,44,77,44,120888,18916,9562,5279,4475,6341,5137,2906,Tag0,unknown
1499247828257,0,68,1.4941406250000001E-5,44,77,44,120888,18916,9562,5279,4475,6341,5137,2906,Tag0,unknown
1499247828257,0,53,1.1645507812500002E-5,44,77,44,120888,18916,9562,5279,4475,6341,5137,2906,Tag0,unknown
1499247828257,0,48,1.0546875E-5,44,77,44,120888,18916,9562,5279,4475,6341,5137,2906,Tag0,unknown
1499247828257,0,42,9.228515625000002E-6,44,77,44,120888,18916,9562,5279,4475,6341,5137,2906,Tag0,unknown
1499247828258,0,18,3.955078125E-6,44,77,44,120888,18916,9562,5279,4475,6341,5137,2906,Tag0,unknown
1499247828258,0,-267,-5.86669921875E-5,44,77,44,120888,18916,9562,5279,4475,6341,5137,2906,Tag0,unknown
1499247828258,0,-260,-5.712890625E-5,44,77,44,120888,18916,9562,5279,4475,6341,5137,2906,Tag0,unknown
1499247828258,0,36,7.91015625E-6,44,77,44,120888,18916,9562,5279,4475,6341,5137,2906,Tag0,unknown
1499247828258,0,52,1.142578125E-5,44,77,44,120888,18916,9562,5279,4475,6341,5137,2906,Tag0,unknown
1499247828258,0,33,7.2509765625E-6,44,77,44,120888,18916,9562,5279,4475,6341,5137,2906,Tag0,unknown
1499247828258,0,17,3.7353515625000003E-6,44,77,44,120888,18916,9562,5279,4475,6341,5137,2906,Tag0,unknown
1499247828259,0,43,9.448242187500001E-6,44,77,44,120888,18916,9562,5279,4475,6341,5137,2906,Tag0,unknown
1499247828259,0,80,1.7578125E-5,44,77,44,120888,18916,9562,5279,4475,6341,5137,2906,Tag0,unknown
1499247828259,0,89,1.95556640625E-5,44,77,44,120888,18916,9562,5279,4475,6341,5137,2906,Tag0,unknown
1499247828259,0,101,2.2192382812500002E-5,44,77,44,120888,18916,9562,5279,4475,6341,5137,2906,Tag0,unknown
1499247828259,0,96,2.109375E-5,44,77,44,120888,18916,9562,5279,4475,6341,5137,2906,Tag0,unknown
1499247828259,0,82,1.8017578124999998E-5,44,77,44,120888,18916,9562,5279,4475,6341,5137,2906,Tag0,unknown
1499247828259,0,70,1.5380859375E-5,44,77,44,120888,18916,9562,5279,4475,6341,5137,2906,Tag0,unknown
1499247828260,0,69,1.51611328125E-5,44,77,44,120888,18916,9562,5279,4475,6341,5137,2906,Tag0,unknown
1499247828260,0,68,1.4941406250000001E-5,44,77,44,120888,18916,9562,5279,4475,6341,5137,2906,Tag0,unknown
1499247828272,0,64,1.40625E-5,53,74,44,16760115,17616,4355,10441,11344,5968,17594,2547,Tag0,unknown
1499247828272,0,72,1.58203125E-5,53,74,44,16760115,17616,4355,10441,11344,5968,17594,2547,Tag0,unknown
1499247828272,0,86,1.8896484375000003E-5,53,74,44,16760115,17616,4355,10441,11344,5968,17594,2547,Tag0,unknown
1499247828272,0,83,1.82373046875E-5,53,74,44,16760115,17616,4355,10441,11344,5968,17594,2547,Tag0,unknown
1499247828273,0,85,1.86767578125E-5,53,74,44,16760115,17616,4355,10441,11344,5968,17594,2547,Tag0,unknown
1499247828273,0,89,1.95556640625E-5,53,74,44,16760115,17616,4355,10441,11344,5968,17594,2547,Tag0,unknown
1499247828273,0,71,1.56005859375E-5,53,74,44,16760115,17616,4355,10441,11344,5968,17594,2547,Tag0,unknown
1499247828273,0,52,1.142578125E-5,53,74,44,16760115,17616,4355,10441,11344,5968,17594,2547,Tag0,unknown
1499247828273,0,39,8.5693359375E-6,53,74,44,16760115,17616,4355,10441,11344,5968,17594,2547,Tag0,unknown
1499247828273,0,34,7.4707031250000005E-6,53,74,44,16760115,17616,4355,10441,11344,5968,17594,2547,Tag0,unknown
1499247828273,0,42,9.228515625000002E-6,53,74,44,16760115,17616,4355,10441,11344,5968,17594,2547,Tag0,unknown
1499247828273,0,58,1.2744140625E-5,53,74,44,16760115,17616,4355,10441,11344,5968,17594,2547,Tag0,unknown
1499247828274,0,75,1.64794921875E-5,53,74,44,16760115,17616,4355,10441,11344,5968,17594,2547,Tag0,unknown
1499247828274,0,71,1.56005859375E-5,53,74,44,16760115,17616,4355,10441,11344,5968,17594,2547,Tag0,unknown
1499247828274,0,36,7.91015625E-6,53,74,44,16760115,17616,4355,10441,11344,5968,17594,2547,Tag0,unknown
1499247828274,0,20,4.39453125E-6,53,74,44,16760115,17616,4355,10441,11344,5968,17594,2547,Tag0,unknown
1499247828274,0,32,7.03125E-6,53,74,44,16760115,17616,4355,10441,11344,5968,17594,2547,Tag0,unknown
1499247828274,0,44,9.66796875E-6,53,74,44,16760115,17616,4355,10441,11344,5968,17594,2547,Tag0,unknown
1499247828274,0,48,1.0546875E-5,53,74,44,16760115,17616,4355,10441,11344,5968,17594,2547,Tag0,unknown
1499247828274,0,37,8.1298828125E-6,53,74,44,16760115,17616,4355,10441,11344,5968,17594,2547,Tag0,unknown
1499247828275,0,24,5.2734375E-6,53,74,44,16760115,17616,4355,10441,11344,5968,17594,2547,Tag0,unknown
1499247828275,0,32,7.03125E-6,53,74,44,16760115,17616,4355,10441,11344,5968,17594,2547,Tag0,unknown
1499247828275,0,43,9.448242187500001E-6,53,74,44,16760115,17616,4355,10441,11344,5968,17594,2547,Tag0,unknown
1499247828275,0,39,8.5693359375E-6,53,74,44,16760115,17616,4355,10441,11344,5968,17594,2547,Tag0,unknown
1499247828275,0,20,4.39453125E-6,53,74,44,16760115,17616,4355,10441,11344,5968,17594,2547,Tag0,unknown
1499247828276,0,2,4.39453125E-7,53,74,44,16760115,17616,4355,10441,11344,5968,17594,2547,Tag0,unknown
1499247828276,0,12,2.63671875E-6,53,74,44,16760115,17616,4355,10441,11344,5968,17594,2547,Tag0,unknown
1499247828276,0,39,8.5693359375E-6,53,74,44,16760115,17616,4355,10441,11344,5968,17594,2547,Tag0,unknown
1499247828278,0,58,1.2744140625E-5,53,74,44,16760115,17616,4355,10441,11344,5968,17594,2547,Tag0,unknown
1499247828279,0,44,9.66796875E-6,53,74,44,16760115,17616,4355,10441,11344,5968,17594,2547,Tag0,unknown
1499247828279,0,34,7.4707031250000005E-6,53,74,44,16760115,17616,4355,10441,11344,5968,17594,2547,Tag0,unknown
1499247828279,0,50,1.0986328125E-5,53,74,44,16760115,17616,4355,10441,11344,5968,17594,2547,Tag0,unknown
1499247828279,0,66,1.4501953125E-5,53,74,44,16760115,17616,4355,10441,11344,5968,17594,2547,Tag0,unknown
1499247828279,0,57,1.2524414062500001E-5,53,74,44,16760115,17616,4355,10441,11344,5968,17594,2547,Tag0,unknown
1499247828279,0,35,7.6904296875E-6,53,74,44,16760115,17616,4355,10441,11344,5968,17594,2547,Tag0,unknown
1499247828279,0,19,4.1748046875E-6,53,74,44,16760115,17616,4355,10441,11344,5968,17594,2547,Tag0,unknown
1499247828279,0,20,4.39453125E-6,53,74,44,16760115,17616,4355,10441,11344,5968,17594,2547,Tag0,unknown
1499247828280,0,34,7.4707031250000005E-6,53,74,44,16760115,17616,4355,10441,11344,5968,17594,2547,Tag0,unknown
1499247828280,0,51,1.1206054687499999E-5,53,74,44,16760115,17616,4355,10441,11344,5968,17594,2547,Tag0,unknown
1499247828280,0,56,1.23046875E-5,53,74,44,16760115,17616,4355,10441,11344,5968,17594,2547,Tag0,unknown
1499247828280,0,42,9.228515625000002E-6,53,74,44,16760115,17616,4355,10441,11344,5968,17594,2547,Tag0,unknown
1499247828280,0,42,9.228515625000002E-6,53,74,44,16760115,17616,4355,10441,11344,5968,17594,2547,Tag0,unknown
1499247828280,0,67,1.4721679687500002E-5,53,74,44,16760115,17616,4355,10441,11344,5968,17594,2547,Tag0,unknown
1499247828280,0,84,1.8457031250000004E-5,53,74,44,16760115,17616,4355,10441,11344,5968,17594,2547,Tag0,unknown
1499247828280,0,87,1.91162109375E-5,53,74,44,16760115,17616,4355,10441,11344,5968,17594,2547,Tag0,unknown
1499247828280,0,97,2.13134765625E-5,53,74,44,16760115,17616,4355,10441,11344,5968,17594,2547,Tag0,unknown
1499247828281,0,96,2.109375E-5,53,74,44,16760115,17616,4355,10441,11344,5968,17594,2547,Tag0,unknown
1499247828281,0,82,1.8017578124999998E-5,53,74,44,16760115,17616,4355,10441,11344,5968,17594,2547,Tag0,unknown
1499247828281,0,80,1.7578125E-5,53,74,44,16760115,17616,4355,10441,11344,5968,17594,2547,Tag0,unknown
1499247828281,0,75,1.64794921875E-5,53,74,44,16760115,17616,4355,10441,11344,5968,17594,2547,Tag0,unknown
1499247828281,0,75,1.64794921875E-5,53,74,44,16760115,17616,4355,10441,11344,5968,17594,2547,Tag0,unknown
1499247828281,0,73,1.6040039062500002E-5,53,74,44,16760115,17616,4355,10441,11344,5968,17594,2547,Tag0,unknown
1499247828281,0,82,1.8017578124999998E-5,53,74,44,16760115,17616,4355,10441,11344,5968,17594,2547,Tag0,unknown
1499247828281,0,93,2.04345703125E-5,53,74,44,16760115,17616,4355,10441,11344,5968,17594,2547,Tag0,unknown
1499247828281,0,87,1.91162109375E-5,53,74,44,16760115,17616,4355,10441,11344,5968,17594,2547,Tag0,unknown
1499247828282,0,66,1.4501953125E-5,53,74,44,16760115,17616,4355,10441,11344,5968,17594,2547,Tag0,unknown
1499247828282,0,42,9.228515625000002E-6,53,74,44,16760115,17616,4355,10441,11344,5968,17594,2547,Tag0,unknown
1499247828282,0,60,1.318359375E-5,53,74,44,16760115,17616,4355,10441,11344,5968,17594,2547,Tag0,unknown
1499247828282,0,106,2.3291015625000003E-5,53,74,44,16760115,17616,4355,10441,11344,5968,17594,2547,Tag0,unknown
1499247828282,0,117,2.5708007812499998E-5,53,74,44,16760115,17616,4355,10441,11344,5968,17594,2547,Tag0,unknown
1499247828282,0,87,1.91162109375E-5,53,74,44,16760115,17616,4355,10441,11344,5968,17594,2547,Tag0,unknown
1499247828282,0,56,1.23046875E-5,53,74,44,16760115,17616,4355,10441,11344,5968,17594,2547,Tag0,unknown
1499247828289,0,44,9.66796875E-6,53,74,44,16760115,17616,4355,10441,11344,5968,17594,2547,Tag0,unknown
1499247828289,0,42,9.228515625000002E-6,53,74,44,16760115,17616,4355,10441,11344,5968,17594,2547,Tag0,unknown
1499247828289,0,56,1.23046875E-5,53,74,44,16760115,17616,4355,10441,11344,5968,17594,2547,Tag0,unknown
1499247828290,0,74,1.6259765625E-5,53,74,44,16760115,17616,4355,10441,11344,5968,17594,2547,Tag0,unknown
1499247828290,0,82,1.8017578124999998E-5,53,74,44,16760115,17616,4355,10441,11344,5968,17594,2547,Tag0,unknown
1499247828290,0,73,1.6040039062500002E-5,53,74,44,16760115,17616,4355,10441,11344,5968,17594,2547,Tag0,unknown
1499247828290,0,60,1.318359375E-5,53,74,44,16760115,17616,4355,10441,11344,5968,17594,2547,Tag0,unknown
1499247828290,0,54,1.1865234375000001E-5,53,74,44,16760115,17616,4355,10441,11344,5968,17594,2547,Tag0,unknown
1499247828290,0,49,1.07666015625E-5,53,74,44,16760115,17616,4355,10441,11344,5968,17594,2547,Tag0,unknown
1499247828290,0,39,8.5693359375E-6,53,74,44,16760115,17616,4355,10441,11344,5968,17594,2547,Tag0,unknown
1499247828290,0,29,6.3720703125E-6,53,74,44,16760115,17616,4355,10441,11344,5968,17594,2547,Tag0,unknown
1499247828290,0,34,7.4707031250000005E-6,53,74,44,16760115,17616,4355,10441,11344,5968,17594,2547,Tag0,unknown
1499247828291,0,39,8.5693359375E-6,53,74,44,16760115,17616,4355,10441,11344,5968,17594,2547,Tag0,unknown
1499247828291,0,57,1.2524414062500001E-5,53,74,44,16760115,17616,4355,10441,11344,5968,17594,2547,Tag0,unknown
1499247828291,0,93,2.04345703125E-5,53,74,44,16760115,17616,4355,10441,11344,5968,17594,2547,Tag0,unknown
1499247828291,0,105,2.30712890625E-5,53,74,44,16760115,17616,4355,10441,11344,5968,17594,2547,Tag0,unknown
1499247828291,0,75,1.64794921875E-5,53,74,44,16760115,17616,4355,10441,11344,5968,17594,2547,Tag0,unknown
1499247828291,0,50,1.0986328125E-5,53,74,44,16760115,17616,4355,10441,11344,5968,17594,2547,Tag0,unknown
1499247828291,0,33,7.2509765625E-6,53,74,44,16760115,17616,4355,10441,11344,5968,17594,2547,Tag0,unknown
1499247828291,0,55,1.20849609375E-5,53,74,44,16760115,17616,4355,10441,11344,5968,17594,2547,Tag0,unknown
1499247828291,0,93,2.04345703125E-5,53,74,44,16760115,17616,4355,10441,11344,5968,17594,2547,Tag0,unknown
1499247828292,0,96,2.109375E-5,53,74,44,16760115,17616,4355,10441,11344,5968,17594,2547,Tag0,unknown
1499247828292,0,72,1.58203125E-5,53,74,44,16760115,17616,4355,10441,11344,5968,17594,2547,Tag0,unknown
1499247828292,0,59,1.29638671875E-5,53,74,44,16760115,17616,4355,10441,11344,5968,17594,2547,Tag0,unknown
1499247828292,0,37,8.1298828125E-6,53,74,44,16760115,17616,4355,10441,11344,5968,17594,2547,Tag0,unknown
1499247828292,0,-257,-5.64697265625E-5,53,74,44,16760115,17616,4355,10441,11344,5968,17594,2547,Tag0,unknown
1499247828292,0,-261,-5.73486328125E-5,53,74,44,16760115,17616,4355,10441,11344,5968,17594,2547,Tag0,unknown
1499247828292,0,22,4.833984375E-6,53,74,44,16760115,17616,4355,10441,11344,5968,17594,2547,Tag0,unknown
1499247828292,0,54,1.1865234375000001E-5,53,74,44,16760115,17616,4355,10441,11344,5968,17594,2547,Tag0,unknown
1499247828293,0,67,1.4721679687500002E-5,53,74,44,16760115,17616,4355,10441,11344,5968,17594,2547,Tag0,unknown
1499247828293,0,74,1.6259765625E-5,53,74,44,16760115,17616,4355,10441,11344,5968,17594,2547,Tag0,unknown
1499247828293,0,85,1.86767578125E-5,53,74,44,16760115,17616,4355,10441,11344,5968,17594,2547,Tag0,unknown
1499247828293,0,85,1.86767578125E-5,53,74,44,16760115,17616,4355,10441,11344,5968,17594,2547,Tag0,unknown
1499247828293,0,91,1.99951171875E-5,53,74,44,16760115,17616,4355,10441,11344,5968,17594,2547,Tag0,unknown
1499247828293,0,112,2.4609375E-5,53,74,44,16760115,17616,4355,10441,11344,5968,17594,2547,Tag0,unknown
1499247828293,0,112,2.4609375E-5,53,74,44,16760115,17616,4355,10441,11344,5968,17594,2547,Tag0,unknown
1499247828294,0,92,2.021484375E-5,53,74,44,16760115,17616,4355,10441,11344,5968,17594,2547,Tag0,unknown
1499247828294,0,80,1.7578125E-5,53,74,44,16760115,17616,4355,10441,11344,5968,17594,2547,Tag0,unknown
1499247828294,0,70,1.5380859375E-5,53,74,44,16760115,17616,4355,10441,11344,5968,17594,2547,Tag0,unknown
1499247828294,0,76,1.669921875E-5,53,74,44,16760115,17616,4355,10441,11344,5968,17594,2547,Tag0,unknown
1499247828294,0,116,2.548828125E-5,53,74,44,16760115,17616,4355,10441,11344,5968,17594,2547,Tag0,unknown
1499247828294,0,-108,-2.3730468750000002E-5,53,74,44,16760115,17616,4355,10441,11344,5968,17594,2547,Tag0,unknown
1499247828294,0,-117,-2.5708007812499998E-5,53,74,44,16760115,17616,4355,10441,11344,5968,17594,2547,Tag0,unknown
1499247828295,0,109,2.39501953125E-5,53,74,44,16760115,17616,4355,10441,11344,5968,17594,2547,Tag0,unknown
1499247828295,0,99,2.1752929687500003E-5,53,74,44,16760115,17616,4355,10441,11344,5968,17594,2547,Tag0,unknown
1499247828295,0,102,2.2412109374999998E-5,53,74,44,16760115,17616,4355,10441,11344,5968,17594,2547,Tag0,unknown
1499247828295,0,109,2.39501953125E-5,53,74,44,16760115,17616,4355,10441,11344,5968,17594,2547,Tag0,unknown
1499247828295,0,119,2.6147460937500004E-5,53,74,44,16760115,17616,4355,10441,11344,5968,17594,2547,Tag0,unknown
1499247828295,0,-120,-2.63671875E-5,53,74,44,16760115,17616,4355,10441,11344,5968,17594,2547,Tag0,unknown
1499247828296,0,-126,-2.7685546875E-5,53,74,44,16760115,17616,4355,10441,11344,5968,17594,2547,Tag0,unknown
1499247828296,0,93,2.04345703125E-5,53,74,44,16760115,17616,4355,10441,11344,5968,17594,2547,Tag0,unknown
1499247828296,0,70,1.5380859375E-5,53,74,44,16760115,17616,4355,10441,11344,5968,17594,2547,Tag0,unknown
1499247828296,0,54,1.1865234375000001E-5,53,74,44,16760115,17616,4355,10441,11344,5968,17594,2547,Tag0,unknown
1499247828296,0,40,8.7890625E-6,53,74,44,16760115,17616,4355,10441,11344,5968,17594,2547,Tag0,unknown
1499247828296,0,45,9.8876953125E-6,53,74,44,16760115,17616,4355,10441,11344,5968,17594,2547,Tag0,unknown
1499247828296,0,72,1.58203125E-5,53,74,44,16760115,17616,4355,10441,11344,5968,17594,2547,Tag0,unknown
1499247828297,0,72,1.58203125E-5,53,74,44,16760115,17616,4355,10441,11344,5968,17594,2547,Tag0,unknown
1499247828297,0,56,1.23046875E-5,53,74,44,16760115,17616,4355,10441,11344,5968,17594,2547,Tag0,unknown
1499247828297,0,51,1.1206054687499999E-5,53,74,44,16760115,17616,4355,10441,11344,5968,17594,2547,Tag0,unknown
1499247828297,0,53,1.1645507812500002E-5,53,74,44,16760115,17616,4355,10441,11344,5968,17594,2547,Tag0,unknown
1499247828297,0,54,1.1865234375000001E-5,53,74,44,16760115,17616,4355,10441,11344,5968,17594,2547,Tag0,unknown
1499247828297,0,49,1.07666015625E-5,53,74,44,16760115,17616,4355,10441,11344,5968,17594,2547,Tag0,unknown
1499247828297,0,57,1.2524414062500001E-5,53,74,44,16760115,17616,4355,10441,11344,5968,17594,2547,Tag0,unknown
1499247828298,0,76,1.669921875E-5,53,74,44,16760115,17616,4355,10441,11344,5968,17594,2547,Tag0,unknown
1499247828298,0,91,1.99951171875E-5,53,74,44,16760115,17616,4355,10441,11344,5968,17594,2547,Tag0,unknown
1499247828298,0,92,2.021484375E-5,53,74,44,16760115,17616,4355,10441,11344,5968,17594,2547,Tag0,unknown
1499247828298,0,68,1.4941406250000001E-5,53,74,44,16760115,17616,4355,10441,11344,5968,17594,2547,Tag0,unknown
1499247828298,0,37,8.1298828125E-6,53,74,44,16760115,17616,4355,10441,11344,5968,17594,2547,Tag0,unknown
1499247828298,0,54,1.1865234375000001E-5,53,74,44,16760115,17616,4355,10441,11344,5968,17594,2547,Tag0,unknown
1499247828298,0,87,1.91162109375E-5,53,74,44,16760115,17616,4355,10441,11344,5968,17594,2547,Tag0,unknown
1499247828298,0,103,2.26318359375E-5,53,74,44,16760115,17616,4355,10441,11344,5968,17594,2547,Tag0,unknown
1499247828298,0,89,1.95556640625E-5,53,74,44,16760115,17616,4355,10441,11344,5968,17594,2547,Tag0,unknown
1499247828299,0,72,1.58203125E-5,53,74,44,16760115,17616,4355,10441,11344,5968,17594,2547,Tag0,unknown
1499247828299,0,72,1.58203125E-5,53,74,44,16760115,17616,4355,10441,11344,5968,17594,2547,Tag0,unknown
1499247828299,0,76,1.669921875E-5,53,74,44,16760115,17616,4355,10441,11344,5968,17594,2547,Tag0,unknown
1499247828299,0,87,1.91162109375E-5,53,74,44,16760115,17616,4355,10441,11344,5968,17594,2547,Tag0,unknown
1499247828299,0,106,2.3291015625000003E-5,53,74,44,16760115,17616,4355,10441,11344,5968,17594,2547,Tag0,unknown
1499247828299,0,114,2.5048828125000003E-5,53,74,44,16760115,17616,4355,10441,11344,5968,17594,2547,Tag0,unknown
1499247828299,0,102,2.2412109374999998E-5,53,74,44,16760115,17616,4355,10441,11344,5968,17594,2547,Tag0,unknown
1499247828299,0,81,1.77978515625E-5,53,74,44,16760115,17616,4355,10441,11344,5968,17594,2547,Tag0,unknown
1499247828299,0,66,1.4501953125E-5,53,74,44,16760115,17616,4355,10441,11344,5968,17594,2547,Tag0,unknown
1499247828300,0,57,1.2524414062500001E-5,53,74,44,16760115,17616,4355,10441,11344,5968,17594,2547,Tag0,unknown
1499247828300,0,68,1.4941406250000001E-5,53,74,44,16760115,17616,4355,10441,11344,5968,17594,2547,Tag0,unknown
1499247828300,0,58,1.2744140625E-5,53,74,44,16760115,17616,4355,10441,11344,5968,17594,2547,Tag0,unknown
1499247828300,0,52,1.142578125E-5,53,74,44,16760115,17616,4355,10441,11344,5968,17594,2547,Tag0,unknown
1499247828300,0,53,1.1645507812500002E-5,53,74,44,16760115,17616,4355,10441,11344,5968,17594,2547,Tag0,unknown
1499247828300,0,51,1.1206054687499999E-5,53,74,44,16760115,17616,4355,10441,11344,5968,17594,2547,Tag0,unknown
1499247828300,0,52,1.142578125E-5,53,74,44,16760115,17616,4355,10441,11344,5968,17594,2547,Tag0,unknown
1499247828300,0,65,1.42822265625E-5,53,74,44,16760115,17616,4355,10441,11344,5968,17594,2547,Tag0,unknown
1499247828301,0,75,1.64794921875E-5,53,74,44,16760115,17616,4355,10441,11344,5968,17594,2547,Tag0,unknown
1499247828301,0,82,1.8017578124999998E-5,53,74,44,16760115,17616,4355,10441,11344,5968,17594,2547,Tag0,unknown
1499247828301,0,81,1.77978515625E-5,53,74,44,16760115,17616,4355,10441,11344,5968,17594,2547,Tag0,unknown
1499247828301,0,67,1.4721679687500002E-5,53,74,44,16760115,17616,4355,10441,11344,5968,17594,2547,Tag0,unknown
1499247828301,0,50,1.0986328125E-5,53,74,44,16760115,17616,4355,10441,11344,5968,17594,2547,Tag0,unknown
1499247828301,0,52,1.142578125E-5,53,74,44,16760115,17616,4355,10441,11344,5968,17594,2547,Tag0,unknown
1499247828301,0,75,1.64794921875E-5,53,74,44,16760115,17616,4355,10441,11344,5968,17594,2547,Tag0,unknown
1499247828301,0,88,1.93359375E-5,53,74,44,16760115,17616,4355,10441,11344,5968,17594,2547,Tag0,unknown
1499247828301,0,83,1.82373046875E-5,53,74,44,16760115,17616,4355,10441,11344,5968,17594,2547,Tag0,unknown
1499247828302,0,71,1.56005859375E-5,53,74,44,16760115,17616,4355,10441,11344,5968,17594,2547,Tag0,unknown
1499247828302,0,60,1.318359375E-5,53,74,44,16760115,17616,4355,10441,11344,5968,17594,2547,Tag0,unknown
1499247828302,0,48,1.0546875E-5,53,74,44,16760115,17616,4355,10441,11344,5968,17594,2547,Tag0,unknown
1499247828302,0,60,1.318359375E-5,53,74,44,16760115,17616,4355,10441,11344,5968,17594,2547,Tag0,unknown
1499247828302,0,92,2.021484375E-5,53,74,44,16760115,17616,4355,10441,11344,5968,17594,2547,Tag0,unknown
1499247828302,0,108,2.3730468750000002E-5,53,74,44,16760115,17616,4355,10441,11344,5968,17594,2547,Tag0,unknown
1499247828302,0,97,2.13134765625E-5,53,74,44,16760115,17616,4355,10441,11344,5968,17594,2547,Tag0,unknown
1499247828302,0,71,1.56005859375E-5,53,74,44,16760115,17616,4355,10441,11344,5968,17594,2547,Tag0,unknown
1499247828302,0,64,1.40625E-5,53,74,44,16760115,17616,4355,10441,11344,5968,17594,2547,Tag0,unknown
1499247828303,0,64,1.40625E-5,53,74,44,16760115,17616,4355,10441,11344,5968,17594,2547,Tag0,unknown
1499247828303,0,69,1.51611328125E-5,53,74,44,16760115,17616,4355,10441,11344,5968,17594,2547,Tag0,unknown
1499247828303,0,71,1.56005859375E-5,53,74,44,16760115,17616,4355,10441,11344,5968,17594,2547,Tag0,unknown
1499247828303,0,68,1.4941406250000001E-5,53,74,44,16760115,17616,4355,10441,11344,5968,17594,2547,Tag0,unknown
1499247828303,0,69,1.51611328125E-5,53,74,44,16760115,17616,4355,10441,11344,5968,17594,2547,Tag0,unknown
1499247828303,0,72,1.58203125E-5,53,74,44,16760115,17616,4355,10441,11344,5968,17594,2547,Tag0,unknown
1499247828303,0,61,1.34033203125E-5,53,74,44,16760115,17616,4355,10441,11344,5968,17594,2547,Tag0,unknown
1499247828303,0,50,1.0986328125E-5,53,74,44,16760115,17616,4355,10441,11344,5968,17594,2547,Tag0,unknown
1499247828304,0,71,1.56005859375E-5,53,74,44,16760115,17616,4355,10441,11344,5968,17594,2547,Tag0,unknown
1499247828304,0,102,2.2412109374999998E-5,53,74,44,16760115,17616,4355,10441,11344,5968,17594,2547,Tag0,unknown
1499247828304,0,103,2.26318359375E-5,53,74,44,16760115,17616,4355,10441,11344,5968,17594,2547,Tag0,unknown
1499247828304,0,90,1.9775390625E-5,53,74,44,16760115,17616,4355,10441,11344,5968,17594,2547,Tag0,unknown
1499247828304,0,86,1.8896484375000003E-5,53,74,44,16760115,17616,4355,10441,11344,5968,17594,2547,Tag0,unknown
1499247828311,0,86,1.8896484375000003E-5,53,74,44,16760115,17616,4355,10441,11344,5968,17594,2547,Tag0,unknown
1499247828311,0,80,1.7578125E-5,53,74,44,16760115,17616,4355,10441,11344,5968,17594,2547,Tag0,unknown
1499247828311,0,70,1.5380859375E-5,53,74,44,16760115,17616,4355,10441,11344,5968,17594,2547,Tag0,unknown
1499247828311,0,65,1.42822265625E-5,53,74,44,16760115,17616,4355,10441,11344,5968,17594,2547,Tag0,unknown
1499247828330,0,71,1.56005859375E-5,53,74,44,16760115,17616,4355,10441,11344,5968,17594,2547,Tag0,unknown
1499247828330,0,82,1.8017578124999998E-5,53,74,44,16760115,17616,4355,10441,11344,5968,17594,2547,Tag0,unknown
1499247828330,0,90,1.9775390625E-5,53,74,44,16760115,17616,4355,10441,11344,5968,17594,2547,Tag0,unknown
1499247828330,0,92,2.021484375E-5,53,74,44,16760115,17616,4355,10441,11344,5968,17594,2547,Tag0,unknown
1499247828330,0,76,1.669921875E-5,53,74,44,16760115,17616,4355,10441,11344,5968,17594,2547,Tag0,unknown
1499247828330,0,61,1.34033203125E-5,53,74,44,16760115,17616,4355,10441,11344,5968,17594,2547,Tag0,unknown
1499247828366,0,74,1.6259765625E-5,53,74,44,16760115,17616,4355,10441,11344,5968,17594,2547,Tag0,unknown
1499247828367,0,102,2.2412109374999998E-5,53,74,44,16760115,17616,4355,10441,11344,5968,17594,2547,Tag0,unknown
1499247828368,0,100,2.197265625E-5,53,74,44,16760115,17616,4355,10441,11344,5968,17594,2547,Tag0,unknown
1499247828368,0,84,1.8457031250000004E-5,53,74,44,16760115,17616,4355,10441,11344,5968,17594,2547,Tag0,unknown
1499247828390,0,83,1.82373046875E-5,53,74,44,16760115,17616,4355,10441,11344,5968,17594,2547,Tag0,unknown
1499247828391,0,89,1.95556640625E-5,53,74,44,16760115,17616,4355,10441,11344,5968,17594,2547,Tag0,unknown
1499247828392,0,93,2.04345703125E-5,53,74,44,16760115,17616,4355,10441,11344,5968,17594,2547,Tag0,unknown
1499247828392,0,89,1.95556640625E-5,53,74,44,16760115,17616,4355,10441,11344,5968,17594,2547,Tag0,unknown
1499247828392,0,82,1.8017578124999998E-5,53,74,44,16760115,17616,4355,10441,11344,5968,17594,2547,Tag0,unknown
1499247828393,0,85,1.86767578125E-5,53,74,44,16760115,17616,4355,10441,11344,5968,17594,2547,Tag0,unknown
1499247828438,0,68,1.4941406250000001E-5,53,74,44,16760115,17616,4355,10441,11344,5968,17594,2547,Tag0,unknown
1499247828448,0,50,1.0986328125E-5,53,74,44,16760115,17616,4355,10441,11344,5968,17594,2547,Tag0,unknown
1499247828448,0,67,1.4721679687500002E-5,53,74,44,16760115,17616,4355,10441,11344,5968,17594,2547,Tag0,unknown
1499247828449,0,80,1.7578125E-5,53,74,44,16760115,17616,4355,10441,11344,5968,17594,2547,Tag0,unknown
1499247828449,0,64,1.40625E-5,53,74,44,16760115,17616,4355,10441,11344,5968,17594,2547,Tag0,unknown
1499247828450,0,64,1.40625E-5,53,74,44,16760115,17616,4355,10441,11344,5968,17594,2547,Tag0,unknown
1499247828450,0,75,1.64794921875E-5,53,74,44,16760115,17616,4355,10441,11344,5968,17594,2547,Tag0,unknown
1499247828451,0,71,1.56005859375E-5,53,74,44,16760115,17616,4355,10441,11344,5968,17594,2547,Tag0,unknown
1499247828452,0,56,1.23046875E-5,53,74,44,16760115,17616,4355,10441,11344,5968,17594,2547,Tag0,unknown
1499247828452,0,50,1.0986328125E-5,53,74,44,16760115,17616,4355,10441,11344,5968,17594,2547,Tag0,unknown
1499247828453,0,52,1.142578125E-5,53,74,44,16760115,17616,4355,10441,11344,5968,17594,2547,Tag0,unknown
1499247828453,0,67,1.4721679687500002E-5,53,74,44,16760115,17616,4355,10441,11344,5968,17594,2547,Tag0,unknown
1499247828454,0,80,1.7578125E-5,53,74,44,16760115,17616,4355,10441,11344,5968,17594,2547,Tag0,unknown
1499247828454,0,91,1.99951171875E-5,53,74,44,16760115,17616,4355,10441,11344,5968,17594,2547,Tag0,unknown
1499247828455,0,85,1.86767578125E-5,53,74,44,16760115,17616,4355,10441,11344,5968,17594,2547,Tag0,unknown
1499247828456,0,52,1.142578125E-5,53,74,44,16760115,17616,4355,10441,11344,5968,17594,2547,Tag0,unknown
1499247828463,0,37,8.1298828125E-6,53,74,44,16760115,17616,4355,10441,11344,5968,17594,2547,Tag0,unknown
1499247828464,0,35,7.6904296875E-6,53,74,44,16760115,17616,4355,10441,11344,5968,17594,2547,Tag0,unknown
1499247828464,0,20,4.39453125E-6,53,74,44,16760115,17616,4355,10441,11344,5968,17594,2547,Tag0,unknown
1499247828465,0,12,2.63671875E-6,53,74,44,16760115,17616,4355,10441,11344,5968,17594,2547,Tag0,unknown
1499247828465,0,21,4.614257812500001E-6,53,74,44,16760115,17616,4355,10441,11344,5968,17594,2547,Tag0,unknown
1499247828465,0,35,7.6904296875E-6,53,74,44,16760115,17616,4355,10441,11344,5968,17594,2547,Tag0,unknown
1499247828466,0,36,7.91015625E-6,53,74,44,16760115,17616,4355,10441,11344,5968,17594,2547,Tag0,unknown
1499247828466,0,26,5.712890625E-6,53,74,44,16760115,17616,4355,10441,11344,5968,17594,2547,Tag0,unknown
1499247828467,0,42,9.228515625000002E-6,53,74,44,16760115,17616,4355,10441,11344,5968,17594,2547,Tag0,unknown
1499247828467,0,45,9.8876953125E-6,53,74,44,16760115,17616,4355,10441,11344,5968,17594,2547,Tag0,unknown
1499247828468,0,33,7.2509765625E-6,53,74,44,16760115,17616,4355,10441,11344,5968,17594,2547,Tag0,unknown
1499247828468,0,34,7.4707031250000005E-6,53,74,44,16760115,17616,4355,10441,11344,5968,17594,2547,Tag0,unknown
1499247828469,0,55,1.20849609375E-5,53,74,44,16760115,17616,4355,10441,11344,5968,17594,2547,Tag0,unknown
1499247828469,0,64,1.40625E-5,53,74,44,16760115,17616,4355,10441,11344,5968,17594,2547,Tag0,unknown
1499247828482,0,49,1.07666015625E-5,53,74,44,16760115,17616,4355,10441,11344,5968,17594,2547,Tag0,unknown
1499247828482,0,45,9.8876953125E-6,53,74,44,16760115,17616,4355,10441,11344,5968,17594,2547,Tag0,unknown
1499247828483,0,59,1.29638671875E-5,53,74,44,16760115,17616,4355,10441,11344,5968,17594,2547,Tag0,unknown
1499247828486,0,90,1.9775390625E-5,53,74,44,16760115,17616,4355,10441,11344,5968,17594,2547,Tag0,unknown
1499247828488,0,106,2.3291015625000003E-5,53,74,44,16760115,17616,4355,10441,11344,5968,17594,2547,Tag0,unknown
1499247828488,0,105,2.30712890625E-5,53,74,44,16760115,17616,4355,10441,11344,5968,17594,2547,Tag0,unknown
1499247828489,0,118,2.5927734375E-5,53,74,44,16760115,17616,4355,10441,11344,5968,17594,2547,Tag0,unknown
1499247828489,0,-109,-2.39501953125E-5,53,74,44,16760115,17616,4355,10441,11344,5968,17594,2547,Tag0,unknown
1499247828490,0,-104,-2.28515625E-5,53,74,44,16760115,17616,4355,10441,11344,5968,17594,2547,Tag0,unknown
1499247828490,0,-126,-2.7685546875E-5,53,74,44,16760115,17616,4355,10441,11344,5968,17594,2547,Tag0,unknown
1499247828528,0,101,2.2192382812500002E-5,53,74,44,16760115,17616,4355,10441,11344,5968,17594,2547,Tag0,unknown
1499247828529,0,85,1.86767578125E-5,53,74,44,16760115,17616,4355,10441,11344,5968,17594,2547,Tag0,unknown
1499247828544,0,83,1.82373046875E-5,53,74,44,16760115,17616,4355,10441,11344,5968,17594,2547,Tag0,unknown
1499247828545,0,80,1.7578125E-5,53,74,44,16760115,17616,4355,10441,11344,5968,17594,2547,Tag0,unknown
1499247828545,0,80,1.7578125E-5,53,74,44,16760115,17616,4355,10441,11344,5968,17594,2547,Tag0,unknown
1499247828545,0,80,1.7578125E-5,53,74,44,16760115,17616,4355,10441,11344,5968,17594,2547,Tag0,unknown
1499247828546,0,93,2.04345703125E-5,53,74,44,16760115,17616,4355,10441,11344,5968,17594,2547,Tag0,unknown
1499247828546,0,103,2.26318359375E-5,53,74,44,16760115,17616,4355,10441,11344,5968,17594,2547,Tag0,unknown
1499247828546,0,86,1.8896484375000003E-5,53,74,44,16760115,17616,4355,10441,11344,5968,17594,2547,Tag0,unknown
1499247828546,0,84,1.8457031250000004E-5,53,74,44,16760115,17616,4355,10441,11344,5968,17594,2547,Tag0,unknown
1499247828546,0,96,2.109375E-5,53,74,44,16760115,17616,4355,10441,11344,5968,17594,2547,Tag0,unknown
1499247828547,0,98,2.1533203125E-5,53,74,44,16760115,17616,4355,10441,11344,5968,17594,2547,Tag0,unknown
1499247828547,0,97,2.13134765625E-5,53,74,44,16760115,17616,4355,10441,11344,5968,17594,2547,Tag0,unknown
1499247828547,0,98,2.1533203125E-5,53,74,44,16760115,17616,4355,10441,11344,5968,17594,2547,Tag0,unknown
1499247828547,0,89,1.95556640625E-5,53,74,44,16760115,17616,4355,10441,11344,5968,17594,2547,Tag0,unknown
1499247828548,0,89,1.95556640625E-5,53,74,44,16760115,17616,4355,10441,11344,5968,17594,2547,Tag0,unknown
1499247828548,0,81,1.77978515625E-5,53,74,44,16760115,17616,4355,10441,11344,5968,17594,2547,Tag0,unknown
1499247828548,0,64,1.40625E-5,53,74,44,16760115,17616,4355,10441,11344,5968,17594,2547,Tag0,unknown
1499247828549,0,49,1.07666015625E-5,53,74,44,16760115,17616,4355,10441,11344,5968,17594,2547,Tag0,unknown
1499247828549,0,49,1.07666015625E-5,53,74,44,16760115,17616,4355,10441,11344,5968,17594,2547,Tag0,unknown
1499247828549,0,64,1.40625E-5,53,74,44,16760115,17616,4355,10441,11344,5968,17594,2547,Tag0,unknown
1499247828550,0,75,1.64794921875E-5,53,74,44,16760115,17616,4355,10441,11344,5968,17594,2547,Tag0,unknown
1499247828550,0,87,1.91162109375E-5,53,74,44,16760115,17616,4355,10441,11344,5968,17594,2547,Tag0,unknown
1499247828550,0,97,2.13134765625E-5,53,74,44,16760115,17616,4355,10441,11344,5968,17594,2547,Tag0,unknown
1499247828551,0,88,1.93359375E-5,53,74,44,16760115,17616,4355,10441,11344,5968,17594,2547,Tag0,unknown
1499247828551,0,68,1.4941406250000001E-5,53,74,44,16760115,17616,4355,10441,11344,5968,17594,2547,Tag0,unknown
1499247828551,0,70,1.5380859375E-5,53,74,44,16760115,17616,4355,10441,11344,5968,17594,2547,Tag0,unknown
1499247828552,0,106,2.3291015625000003E-5,53,74,44,16760115,17616,4355,10441,11344,5968,17594,2547,Tag0,unknown
1499247828552,0,117,2.5708007812499998E-5,53,74,44,16760115,17616,4355,10441,11344,5968,17594,2547,Tag0,unknown
1499247828553,0,98,2.1533203125E-5,53,74,44,16760115,17616,4355,10441,11344,5968,17594,2547,Tag0,unknown
1499247828553,0,92,2.021484375E-5,53,74,44,16760115,17616,4355,10441,11344,5968,17594,2547,Tag0,unknown
1499247828553,0,102,2.2412109374999998E-5,53,74,44,16760115,17616,4355,10441,11344,5968,17594,2547,Tag0,unknown
1499247828553,0,106,2.3291015625000003E-5,53,74,44,16760115,17616,4355,10441,11344,5968,17594,2547,Tag0,unknown
1499247828553,0,106,2.3291015625000003E-5,53,74,44,16760115,17616,4355,10441,11344,5968,17594,2547,Tag0,unknown
1499247828554,0,100,2.197265625E-5,53,74,44,16760115,17616,4355,10441,11344,5968,17594,2547,Tag0,unknown
1499247828554,0,92,2.021484375E-5,53,74,44,16760115,17616,4355,10441,11344,5968,17594,2547,Tag0,unknown
1499247828554,0,81,1.77978515625E-5,53,74,44,16760115,17616,4355,10441,11344,5968,17594,2547,Tag0,unknown
1499247828554,0,67,1.4721679687500002E-5,53,74,44,16760115,17616,4355,10441,11344,5968,17594,2547,Tag0,unknown
1499247828555,0,53,1.1645507812500002E-5,53,74,44,16760115,17616,4355,10441,11344,5968,17594,2547,Tag0,unknown
1499247828555,0,58,1.2744140625E-5,53,74,44,16760115,17616,4355,10441,11344,5968,17594,2547,Tag0,unknown
1499247828555,0,82,1.8017578124999998E-5,53,74,44,16760115,17616,4355,10441,11344,5968,17594,2547,Tag0,unknown
1499247828588,0,100,2.197265625E-5,53,74,44,16760115,17616,4355,10441,11344,5968,17594,2547,Tag0,unknown
1499247828589,0,85,1.86767578125E-5,53,74,44,16760115,17616,4355,10441,11344,5968,17594,2547,Tag0,unknown
1499247828594,0,68,1.4941406250000001E-5,53,74,44,16760115,17616,4355,10441,11344,5968,17594,2547,Tag0,unknown
1499247828594,0,73,1.6040039062500002E-5,53,74,44,16760115,17616,4355,10441,11344,5968,17594,2547,Tag0,unknown
1499247828595,0,74,1.6259765625E-5,53,74,44,16760115,17616,4355,10441,11344,5968,17594,2547,Tag0,unknown
1499247828595,0,59,1.29638671875E-5,53,74,44,16760115,17616,4355,10441,11344,5968,17594,2547,Tag0,unknown
1499247828595,0,43,9.448242187500001E-6,53,74,44,16760115,17616,4355,10441,11344,5968,17594,2547,Tag0,unknown
1499247828595,0,50,1.0986328125E-5,53,74,44,16760115,17616,4355,10441,11344,5968,17594,2547,Tag0,unknown
1499247828596,0,65,1.42822265625E-5,53,74,44,16760115,17616,4355,10441,11344,5968,17594,2547,Tag0,unknown
1499247828596,0,55,1.20849609375E-5,53,74,44,16760115,17616,4355,10441,11344,5968,17594,2547,Tag0,unknown
1499247828596,0,51,1.1206054687499999E-5,53,74,44,16760115,17616,4355,10441,11344,5968,17594,2547,Tag0,unknown
1499247828596,0,49,1.07666015625E-5,53,74,44,16760115,17616,4355,10441,11344,5968,17594,2547,Tag0,unknown
1499247828597,0,27,5.9326171875000005E-6,53,74,44,16760115,17616,4355,10441,11344,5968,17594,2547,Tag0,unknown
1499247828597,0,20,4.39453125E-6,53,74,44,16760115,17616,4355,10441,11344,5968,17594,2547,Tag0,unknown
1499247828597,0,35,7.6904296875E-6,53,74,44,16760115,17616,4355,10441,11344,5968,17594,2547,Tag0,unknown
1499247828597,0,38,8.349609375E-6,53,74,44,16760115,17616,4355,10441,11344,5968,17594,2547,Tag0,unknown
1499247828613,0,33,7.2509765625E-6,53,74,44,16760115,17616,4355,10441,11344,5968,17594,2547,Tag0,unknown
1499247828628,0,28,6.15234375E-6,53,74,44,16760115,17616,4355,10441,11344,5968,17594,2547,Tag0,unknown
1499247828628,0,28,6.15234375E-6,53,74,44,16760115,17616,4355,10441,11344,5968,17594,2547,Tag0,unknown
1499247828628,0,42,9.228515625000002E-6,53,74,44,16760115,17616,4355,10441,11344,5968,17594,2547,Tag0,unknown
1499247828629,0,42,9.228515625000002E-6,53,74,44,16760115,17616,4355,10441,11344,5968,17594,2547,Tag0,unknown
1499247828629,0,36,7.91015625E-6,53,74,44,16760115,17616,4355,10441,11344,5968,17594,2547,Tag0,unknown
1499247828629,0,37,8.1298828125E-6,53,74,44,16760115,17616,4355,10441,11344,5968,17594,2547,Tag0,unknown
1499247828629,0,40,8.7890625E-6,53,74,44,16760115,17616,4355,10441,11344,5968,17594,2547,Tag0,unknown
1499247828629,0,55,1.20849609375E-5,53,74,44,16760115,17616,4355,10441,11344,5968,17594,2547,Tag0,unknown
1499247828630,0,75,1.64794921875E-5,53,74,44,16760115,17616,4355,10441,11344,5968,17594,2547,Tag0,unknown
1499247828630,0,88,1.93359375E-5,53,74,44,16760115,17616,4355,10441,11344,5968,17594,2547,Tag0,unknown
1499247828630,0,80,1.7578125E-5,53,74,44,16760115,17616,4355,10441,11344,5968,17594,2547,Tag0,unknown
1499247828630,0,50,1.0986328125E-5,53,74,44,16760115,17616,4355,10441,11344,5968,17594,2547,Tag0,unknown
1499247828630,0,21,4.614257812500001E-6,53,74,44,16760115,17616,4355,10441,11344,5968,17594,2547,Tag0,unknown
1499247828631,0,18,3.955078125E-6,53,74,44,16760115,17616,4355,10441,11344,5968,17594,2547,Tag0,unknown
1499247828631,0,34,7.4707031250000005E-6,53,74,44,16760115,17616,4355,10441,11344,5968,17594,2547,Tag0,unknown
1499247828631,0,51,1.1206054687499999E-5,53,74,44,16760115,17616,4355,10441,11344,5968,17594,2547,Tag0,unknown
1499247828631,0,56,1.23046875E-5,53,74,44,16760115,17616,4355,10441,11344,5968,17594,2547,Tag0,unknown
1499247828632,0,55,1.20849609375E-5,53,74,44,16760115,17616,4355,10441,11344,5968,17594,2547,Tag0,unknown
1499247828632,0,53,1.1645507812500002E-5,53,74,44,16760115,17616,4355,10441,11344,5968,17594,2547,Tag0,unknown
1499247828632,0,53,1.1645507812500002E-5,53,74,44,16760115,17616,4355,10441,11344,5968,17594,2547,Tag0,unknown
1499247828633,0,65,1.42822265625E-5,53,74,44,16760115,17616,4355,10441,11344,5968,17594,2547,Tag0,unknown
1499247828633,0,80,1.7578125E-5,53,74,44,16760115,17616,4355,10441,11344,5968,17594,2547,Tag0,unknown
1499247828633,0,74,1.6259765625E-5,53,74,44,16760115,17616,4355,10441,11344,5968,17594,2547,Tag0,unknown
1499247828633,0,54,1.1865234375000001E-5,53,74,44,16760115,17616,4355,10441,11344,5968,17594,2547,Tag0,unknown
1499247828633,0,39,8.5693359375E-6,53,74,44,16760115,17616,4355,10441,11344,5968,17594,2547,Tag0,unknown
1499247828634,0,38,8.349609375E-6,53,74,44,16760115,17616,4355,10441,11344,5968,17594,2547,Tag0,unknown
1499247828634,0,51,1.1206054687499999E-5,53,74,44,16760115,17616,4355,10441,11344,5968,17594,2547,Tag0,unknown
1499247828634,0,68,1.4941406250000001E-5,53,74,44,16760115,17616,4355,10441,11344,5968,17594,2547,Tag0,unknown
1499247828634,0,74,1.6259765625E-5,53,74,44,16760115,17616,4355,10441,11344,5968,17594,2547,Tag0,unknown
1499247828634,0,55,1.20849609375E-5,53,74,44,16760115,17616,4355,10441,11344,5968,17594,2547,Tag0,unknown
1499247828634,0,38,8.349609375E-6,53,74,44,16760115,17616,4355,10441,11344,5968,17594,2547,Tag0,unknown
1499247828635,0,40,8.7890625E-6,53,74,44,16760115,17616,4355,10441,11344,5968,17594,2547,Tag0,unknown
1499247828878,0,50,1.0986328125E-5,53,74,44,16760115,17616,4355,10441,11344,5968,17594,2547,Tag0,unknown
1499247828879,0,57,1.2524414062500001E-5,53,74,44,16760115,17616,4355,10441,11344,5968,17594,2547,Tag0,unknown
1499247828879,0,57,1.2524414062500001E-5,53,74,44,16760115,17616,4355,10441,11344,5968,17594,2547,Tag0,unknown
1499247828879,0,44,9.66796875E-6,53,74,44,16760115,17616,4355,10441,11344,5968,17594,2547,Tag0,unknown
1499247828882,0,29,6.3720703125E-6,53,74,44,16760115,17616,4355,10441,11344,5968,17594,2547,Tag0,unknown
1499247828882,0,28,6.15234375E-6,53,74,44,16760115,17616,4355,10441,11344,5968,17594,2547,Tag0,unknown
1499247828883,0,38,8.349609375E-6,53,74,44,16760115,17616,4355,10441,11344,5968,17594,2547,Tag0,unknown
1499247828883,0,39,8.5693359375E-6,53,74,44,16760115,17616,4355,10441,11344,5968,17594,2547,Tag0,unknown
1499247828883,0,33,7.2509765625E-6,53,74,44,16760115,17616,4355,10441,11344,5968,17594,2547,Tag0,unknown
1499247828884,0,33,7.2509765625E-6,53,74,44,16760115,17616,4355,10441,11344,5968,17594,2547,Tag0,unknown
1499247828884,0,39,8.5693359375E-6,53,74,44,16760115,17616,4355,10441,11344,5968,17594,2547,Tag0,unknown
1499247828884,0,67,1.4721679687500002E-5,53,74,44,16760115,17616,4355,10441,11344,5968,17594,2547,Tag0,unknown
1499247828884,0,81,1.77978515625E-5,53,74,44,16760115,17616,4355,10441,11344,5968,17594,2547,Tag0,unknown
1499247828885,0,75,1.64794921875E-5,53,74,44,16760115,17616,4355,10441,11344,5968,17594,2547,Tag0,unknown
1499247828885,0,59,1.29638671875E-5,53,74,44,16760115,17616,4355,10441,11344,5968,17594,2547,Tag0,unknown
1499247828886,0,52,1.142578125E-5,53,74,44,16760115,17616,4355,10441,11344,5968,17594,2547,Tag0,unknown
1499247828886,0,65,1.42822265625E-5,53,74,44,16760115,17616,4355,10441,11344,5968,17594,2547,Tag0,unknown
1499247828886,0,81,1.77978515625E-5,53,74,44,16760115,17616,4355,10441,11344,5968,17594,2547,Tag0,unknown
1499247828887,0,87,1.91162109375E-5,53,74,44,16760115,17616,4355,10441,11344,5968,17594,2547,Tag0,unknown
1499247828887,0,81,1.77978515625E-5,53,74,44,16760115,17616,4355,10441,11344,5968,17594,2547,Tag0,unknown
1499247828887,0,65,1.42822265625E-5,53,74,44,16760115,17616,4355,10441,11344,5968,17594,2547,Tag0,unknown
1499247828888,0,49,1.07666015625E-5,53,74,44,16760115,17616,4355,10441,11344,5968,17594,2547,Tag0,unknown
1499247828888,0,36,7.91015625E-6,53,74,44,16760115,17616,4355,10441,11344,5968,17594,2547,Tag0,unknown
1499247828888,0,22,4.833984375E-6,53,74,44,16760115,17616,4355,10441,11344,5968,17594,2547,Tag0,unknown
1499247828888,0,4,8.7890625E-7,53,74,44,16760115,17616,4355,10441,11344,5968,17594,2547,Tag0,unknown
1499247828889,0,-260,-5.712890625E-5,53,74,44,16760115,17616,4355,10441,11344,5968,17594,2547,Tag0,unknown
1499247828889,0,-259,-5.69091796875E-5,53,74,44,16760115,17616,4355,10441,11344,5968,17594,2547,Tag0,unknown
1499247828890,0,-262,-5.7568359375E-5,53,74,44,16760115,17616,4355,10441,11344,5968,17594,2547,Tag0,unknown
1499247828890,0,-257,-5.64697265625E-5,53,74,44,16760115,17616,4355,10441,11344,5968,17594,2547,Tag0,unknown
1499247828890,0,29,6.3720703125E-6,53,74,44,16760115,17616,4355,10441,11344,5968,17594,2547,Tag0,unknown
1499247828891,0,59,1.29638671875E-5,53,74,44,16760115,17616,4355,10441,11344,5968,17594,2547,Tag0,unknown
1499247828891,0,64,1.40625E-5,53,74,44,16760115,17616,4355,10441,11344,5968,17594,2547,Tag0,unknown
1499247828891,0,65,1.42822265625E-5,53,74,44,16760115,17616,4355,10441,11344,5968,17594,2547,Tag0,unknown
1499247828892,0,65,1.42822265625E-5,53,74,44,16760115,17616,4355,10441,11344,5968,17594,2547,Tag0,unknown
1499247828892,0,57,1.2524414062500001E-5,53,74,44,16760115,17616,4355,10441,11344,5968,17594,2547,Tag0,unknown
1499247828892,0,56,1.23046875E-5,53,74,44,16760115,17616,4355,10441,11344,5968,17594,2547,Tag0,unknown
1499247828892,0,68,1.4941406250000001E-5,53,74,44,16760115,17616,4355,10441,11344,5968,17594,2547,Tag0,unknown
1499247828893,0,73,1.6040039062500002E-5,53,74,44,16760115,17616,4355,10441,11344,5968,17594,2547,Tag0,unknown
1499247828893,0,67,1.4721679687500002E-5,53,74,44,16760115,17616,4355,10441,11344,5968,17594,2547,Tag0,unknown
1499247828893,0,57,1.2524414062500001E-5,53,74,44,16760115,17616,4355,10441,11344,5968,17594,2547,Tag0,unknown
1499247828894,0,56,1.23046875E-5,53,74,44,16760115,17616,4355,10441,11344,5968,17594,2547,Tag0,unknown
1499247828894,0,50,1.0986328125E-5,53,74,44,16760115,17616,4355,10441,11344,5968,17594,2547,Tag0,unknown
1499247828894,0,50,1.0986328125E-5,53,74,44,16760115,17616,4355,10441,11344,5968,17594,2547,Tag0,unknown
1499247828895,0,69,1.51611328125E-5,53,74,44,16760115,17616,4355,10441,11344,5968,17594,2547,Tag0,unknown
1499247828895,0,84,1.8457031250000004E-5,53,74,44,16760115,17616,4355,10441,11344,5968,17594,2547,Tag0,unknown
1499247828895,0,82,1.8017578124999998E-5,53,74,44,16760115,17616,4355,10441,11344,5968,17594,2547,Tag0,unknown
1499247828896,0,72,1.58203125E-5,53,74,44,16760115,17616,4355,10441,11344,5968,17594,2547,Tag0,unknown
1499247828896,0,76,1.669921875E-5,53,74,44,16760115,17616,4355,10441,11344,5968,17594,2547,Tag0,unknown
1499247828896,0,91,1.99951171875E-5,53,74,44,16760115,17616,4355,10441,11344,5968,17594,2547,Tag0,unknown
1499247828897,0,74,1.6259765625E-5,53,74,44,16760115,17616,4355,10441,11344,5968,17594,2547,Tag0,unknown
1499247828897,0,43,9.448242187500001E-6,53,74,44,16760115,17616,4355,10441,11344,5968,17594,2547,Tag0,unknown
1499247828897,0,34,7.4707031250000005E-6,53,74,44,16760115,17616,4355,10441,11344,5968,17594,2547,Tag0,unknown
1499247828898,0,39,8.5693359375E-6,53,74,44,16760115,17616,4355,10441,11344,5968,17594,2547,Tag0,unknown
1499247828898,0,65,1.42822265625E-5,53,74,44,16760115,17616,4355,10441,11344,5968,17594,2547,Tag0,unknown
1499247828898,0,101,2.2192382812500002E-5,53,74,44,16760115,17616,4355,10441,11344,5968,17594,2547,Tag0,unknown
1499247828898,0,106,2.3291015625000003E-5,53,74,44,16760115,17616,4355,10441,11344,5968,17594,2547,Tag0,unknown
1499247828899,0,75,1.64794921875E-5,53,74,44,16760115,17616,4355,10441,11344,5968,17594,2547,Tag0,unknown
1499247828899,0,53,1.1645507812500002E-5,53,74,44,16760115,17616,4355,10441,11344,5968,17594,2547,Tag0,unknown
1499247828899,0,58,1.2744140625E-5,53,74,44,16760115,17616,4355,10441,11344,5968,17594,2547,Tag0,unknown
1499247828900,0,71,1.56005859375E-5,53,74,44,16760115,17616,4355,10441,11344,5968,17594,2547,Tag0,unknown
1499247828900,0,72,1.58203125E-5,53,74,44,16760115,17616,4355,10441,11344,5968,17594,2547,Tag0,unknown
1499247828900,0,73,1.6040039062500002E-5,53,74,44,16760115,17616,4355,10441,11344,5968,17594,2547,Tag0,unknown
1499247828900,0,71,1.56005859375E-5,53,74,44,16760115,17616,4355,10441,11344,5968,17594,2547,Tag0,unknown
1499247828901,0,54,1.1865234375000001E-5,53,74,44,16760115,17616,4355,10441,11344,5968,17594,2547,Tag0,unknown
1499247828901,0,49,1.07666015625E-5,53,74,44,16760115,17616,4355,10441,11344,5968,17594,2547,Tag0,unknown
1499247828901,0,50,1.0986328125E-5,53,74,44,16760115,17616,4355,10441,11344,5968,17594,2547,Tag0,unknown
1499247828902,0,52,1.142578125E-5,53,74,44,16760115,17616,4355,10441,11344,5968,17594,2547,Tag0,unknown
1499247828902,0,50,1.0986328125E-5,53,74,44,16760115,17616,4355,10441,11344,5968,17594,2547,Tag0,unknown
1499247828902,0,34,7.4707031250000005E-6,53,74,44,16760115,17616,4355,10441,11344,5968,17594,2547,Tag0,unknown
1499247828902,0,20,4.39453125E-6,53,74,44,16760115,17616,4355,10441,11344,5968,17594,2547,Tag0,unknown
1499247828903,0,28,6.15234375E-6,53,74,44,16760115,17616,4355,10441,11344,5968,17594,2547,Tag0,unknown
1499247828903,0,68,1.4941406250000001E-5,53,74,44,16760115,17616,4355,10441,11344,5968,17594,2547,Tag0,unknown
1499247828903,0,105,2.30712890625E-5,53,74,44,16760115,17616,4355,10441,11344,5968,17594,2547,Tag0,unknown
1499247828904,0,116,2.548828125E-5,53,74,44,16760115,17616,4355,10441,11344,5968,17594,2547,Tag0,unknown
1499247828904,0,100,2.197265625E-5,53,74,44,16760115,17616,4355,10441,11344,5968,17594,2547,Tag0,unknown
1499247828904,0,83,1.82373046875E-5,53,74,44,16760115,17616,4355,10441,11344,5968,17594,2547,Tag0,unknown
1499247828905,0,83,1.82373046875E-5,53,74,44,16760115,17616,4355,10441,11344,5968,17594,2547,Tag0,unknown
1499247828906,0,90,1.9775390625E-5,53,74,44,16760115,17616,4355,10441,11344,5968,17594,2547,Tag0,unknown
1499247828906,0,90,1.9775390625E-5,53,74,44,16760115,17616,4355,10441,11344,5968,17594,2547,Tag0,unknown
1499247828907,0,73,1.6040039062500002E-5,53,74,44,16760115,17616,4355,10441,11344,5968,17594,2547,Tag0,unknown
1499247828907,0,53,1.1645507812500002E-5,53,74,44,16760115,17616,4355,10441,11344,5968,17594,2547,Tag0,unknown
1499247828907,0,45,9.8876953125E-6,53,74,44,16760115,17616,4355,10441,11344,5968,17594,2547,Tag0,unknown
1499247828908,0,51,1.1206054687499999E-5,53,74,44,16760115,17616,4355,10441,11344,5968,17594,2547,Tag0,unknown
1499247828908,0,51,1.1206054687499999E-5,53,74,44,16760115,17616,4355,10441,11344,5968,17594,2547,Tag0,unknown
1499247828908,0,43,9.448242187500001E-6,53,74,44,16760115,17616,4355,10441,11344,5968,17594,2547,Tag0,unknown
1499247828908,0,42,9.228515625000002E-6,53,74,44,16760115,17616,4355,10441,11344,5968,17594,2547,Tag0,unknown
1499247828909,0,53,1.1645507812500002E-5,53,74,44,16760115,17616,4355,10441,11344,5968,17594,2547,Tag0,unknown
1499247828909,0,69,1.51611328125E-5,53,74,44,16760115,17616,4355,10441,11344,5968,17594,2547,Tag0,unknown
1499247828909,0,56,1.23046875E-5,53,74,44,16760115,17616,4355,10441,11344,5968,17594,2547,Tag0,unknown
1499247828910,0,44,9.66796875E-6,53,74,44,16760115,17616,4355,10441,11344,5968,17594,2547,Tag0,unknown
1499247828910,0,45,9.8876953125E-6,53,74,44,16760115,17616,4355,10441,11344,5968,17594,2547,Tag0,unknown
1499247828910,0,43,9.448242187500001E-6,53,74,44,16760115,17616,4355,10441,11344,5968,17594,2547,Tag0,unknown
1499247828911,0,56,1.23046875E-5,53,74,44,16760115,17616,4355,10441,11344,5968,17594,2547,Tag0,unknown
1499247828911,0,85,1.86767578125E-5,53,74,44,16760115,17616,4355,10441,11344,5968,17594,2547,Tag0,unknown
1499247828911,0,87,1.91162109375E-5,53,74,44,16760115,17616,4355,10441,11344,5968,17594,2547,Tag0,unknown
1499247828911,0,71,1.56005859375E-5,53,74,44,16760115,17616,4355,10441,11344,5968,17594,2547,Tag0,unknown
1499247828912,0,73,1.6040039062500002E-5,53,74,44,16760115,17616,4355,10441,11344,5968,17594,2547,Tag0,unknown
1499247828912,0,80,1.7578125E-5,53,74,44,16760115,17616,4355,10441,11344,5968,17594,2547,Tag0,unknown
1499247828912,0,66,1.4501953125E-5,53,74,44,16760115,17616,4355,10441,11344,5968,17594,2547,Tag0,unknown
1499247828913,0,59,1.29638671875E-5,53,74,44,16760115,17616,4355,10441,11344,5968,17594,2547,Tag0,unknown
1499247828913,0,81,1.77978515625E-5,53,74,44,16760115,17616,4355,10441,11344,5968,17594,2547,Tag0,unknown
1499247828921,0,107,2.35107421875E-5,53,74,44,16760115,17616,4355,10441,11344,5968,17594,2547,Tag0,unknown
1499247828922,0,102,2.2412109374999998E-5,53,74,44,16760115,17616,4355,10441,11344,5968,17594,2547,Tag0,unknown
1499247828923,0,76,1.669921875E-5,53,74,44,16760115,17616,4355,10441,11344,5968,17594,2547,Tag0,unknown
1499247828923,0,56,1.23046875E-5,53,74,44,16760115,17616,4355,10441,11344,5968,17594,2547,Tag0,unknown
1499247828924,0,51,1.1206054687499999E-5,53,74,44,16760115,17616,4355,10441,11344,5968,17594,2547,Tag0,unknown
1499247828924,0,61,1.34033203125E-5,53,74,44,16760115,17616,4355,10441,11344,5968,17594,2547,Tag0,unknown
1499247828924,0,97,2.13134765625E-5,53,74,44,16760115,17616,4355,10441,11344,5968,17594,2547,Tag0,unknown
1499247828925,0,125,2.74658203125E-5,53,74,44,16760115,17616,4355,10441,11344,5968,17594,2547,Tag0,unknown
1499247828925,0,119,2.6147460937500004E-5,53,74,44,16760115,17616,4355,10441,11344,5968,17594,2547,Tag0,unknown
1499247828925,0,107,2.35107421875E-5,53,74,44,16760115,17616,4355,10441,11344,5968,17594,2547,Tag0,unknown
1499247828926,0,92,2.021484375E-5,53,74,44,16760115,17616,4355,10441,11344,5968,17594,2547,Tag0,unknown
1499247828926,0,68,1.4941406250000001E-5,53,74,44,16760115,17616,4355,10441,11344,5968,17594,2547,Tag0,unknown
1499247828926,0,52,1.142578125E-5,53,74,44,16760115,17616,4355,10441,11344,5968,17594,2547,Tag0,unknown
1499247828927,0,52,1.142578125E-5,53,74,44,16760115,17616,4355,10441,11344,5968,17594,2547,Tag0,unknown
1499247828927,0,54,1.1865234375000001E-5,53,74,44,16760115,17616,4355,10441,11344,5968,17594,2547,Tag0,unknown
1499247828927,0,41,9.008789062499999E-6,53,74,44,16760115,17616,4355,10441,11344,5968,17594,2547,Tag0,unknown
1499247828939,0,36,7.91015625E-6,53,74,44,16760115,17616,4355,10441,11344,5968,17594,2547,Tag0,unknown
1499247828940,0,52,1.142578125E-5,53,74,44,16760115,17616,4355,10441,11344,5968,17594,2547,Tag0,unknown
1499247828941,0,68,1.4941406250000001E-5,53,74,44,16760115,17616,4355,10441,11344,5968,17594,2547,Tag0,unknown
1499247828941,0,70,1.5380859375E-5,53,74,44,16760115,17616,4355,10441,11344,5968,17594,2547,Tag0,unknown
1499247828942,0,81,1.77978515625E-5,53,74,44,16760115,17616,4355,10441,11344,5968,17594,2547,Tag0,unknown
1499247828944,0,96,2.109375E-5,53,74,44,16760115,17616,4355,10441,11344,5968,17594,2547,Tag0,unknown
1499247828946,0,91,1.99951171875E-5,53,74,44,16760115,17616,4355,10441,11344,5968,17594,2547,Tag0,unknown
1499247828947,0,64,1.40625E-5,53,74,44,16760115,17616,4355,10441,11344,5968,17594,2547,Tag0,unknown
1499247828947,0,37,8.1298828125E-6,53,74,44,16760115,17616,4355,10441,11344,5968,17594,2547,Tag0,unknown
1499247828948,0,34,7.4707031250000005E-6,53,74,44,16760115,17616,4355,10441,11344,5968,17594,2547,Tag0,unknown
1499247828948,0,38,8.349609375E-6,53,74,44,16760115,17616,4355,10441,11344,5968,17594,2547,Tag0,unknown
1499247828949,0,40,8.7890625E-6,53,74,44,16760115,17616,4355,10441,11344,5968,17594,2547,Tag0,unknown
1499247828949,0,26,5.712890625E-6,53,74,44,16760115,17616,4355,10441,11344,5968,17594,2547,Tag0,unknown
1499247828949,0,19,4.1748046875E-6,53,74,44,16760115,17616,4355,10441,11344,5968,17594,2547,Tag0,unknown
1499247828949,0,28,6.15234375E-6,53,74,44,16760115,17616,4355,10441,11344,5968,17594,2547,Tag0,unknown
1499247828950,0,58,1.2744140625E-5,53,74,44,16760115,17616,4355,10441,11344,5968,17594,2547,Tag0,unknown
1499247828950,0,82,1.8017578124999998E-5,53,74,44,16760115,17616,4355,10441,11344,5968,17594,2547,Tag0,unknown
1499247828950,0,86,1.8896484375000003E-5,53,74,44,16760115,17616,4355,10441,11344,5968,17594,2547,Tag0,unknown
1499247828950,0,93,2.04345703125E-5,53,74,44,16760115,17616,4355,10441,11344,5968,17594,2547,Tag0,unknown
1499247828951,0,98,2.1533203125E-5,53,74,44,16760115,17616,4355,10441,11344,5968,17594,2547,Tag0,unknown
1499247828951,0,96,2.109375E-5,53,74,44,16760115,17616,4355,10441,11344,5968,17594,2547,Tag0,unknown
1499247828951,0,99,2.1752929687500003E-5,53,74,44,16760115,17616,4355,10441,11344,5968,17594,2547,Tag0,unknown
1499247828951,0,105,2.30712890625E-5,53,74,44,16760115,17616,4355,10441,11344,5968,17594,2547,Tag0,unknown
1499247828952,0,102,2.2412109374999998E-5,53,74,44,16760115,17616,4355,10441,11344,5968,17594,2547,Tag0,unknown
1499247828952,0,87,1.91162109375E-5,53,74,44,16760115,17616,4355,10441,11344,5968,17594,2547,Tag0,unknown
1499247828952,0,68,1.4941406250000001E-5,53,74,44,16760115,17616,4355,10441,11344,5968,17594,2547,Tag0,unknown
1499247828952,0,65,1.42822265625E-5,53,74,44,16760115,17616,4355,10441,11344,5968,17594,2547,Tag0,unknown
1499247828953,0,66,1.4501953125E-5,53,74,44,16760115,17616,4355,10441,11344,5968,17594,2547,Tag0,unknown
1499247828953,0,61,1.34033203125E-5,53,74,44,16760115,17616,4355,10441,11344,5968,17594,2547,Tag0,unknown
1499247828953,0,65,1.42822265625E-5,53,74,44,16760115,17616,4355,10441,11344,5968,17594,2547,Tag0,unknown
1499247828953,0,68,1.4941406250000001E-5,53,74,44,16760115,17616,4355,10441,11344,5968,17594,2547,Tag0,unknown
1499247828954,0,58,1.2744140625E-5,53,74,44,16760115,17616,4355,10441,11344,5968,17594,2547,Tag0,unknown
1499247828954,0,59,1.29638671875E-5,53,74,44,16760115,17616,4355,10441,11344,5968,17594,2547,Tag0,unknown
1499247829410,0,67,1.4721679687500002E-5,53,74,44,16760115,17616,4355,10441,11344,5968,17594,2547,Tag0,unknown
1499247829410,0,70,1.5380859375E-5,53,74,44,16760115,17616,4355,10441,11344,5968,17594,2547,Tag0,unknown
1499247829410,0,71,1.56005859375E-5,53,74,44,16760115,17616,4355,10441,11344,5968,17594,2547,Tag0,unknown
1499247829410,0,71,1.56005859375E-5,53,74,44,16760115,17616,4355,10441,11344,5968,17594,2547,Tag0,unknown
1499247829411,0,69,1.51611328125E-5,53,74,44,16760115,17616,4355,10441,11344,5968,17594,2547,Tag0,unknown
1499247829411,0,69,1.51611328125E-5,53,74,44,16760115,17616,4355,10441,11344,5968,17594,2547,Tag0,unknown
1499247829411,0,58,1.2744140625E-5,53,74,44,16760115,17616,4355,10441,11344,5968,17594,2547,Tag0,unknown
1499247829411,0,45,9.8876953125E-6,53,74,44,16760115,17616,4355,10441,11344,5968,17594,2547,Tag0,unknown
1499247829411,0,39,8.5693359375E-6,53,74,44,16760115,17616,4355,10441,11344,5968,17594,2547,Tag0,unknown
1499247829412,0,48,1.0546875E-5,53,74,44,16760115,17616,4355,10441,11344,5968,17594,2547,Tag0,unknown
1499247829412,0,66,1.4501953125E-5,53,74,44,16760115,17616,4355,10441,11344,5968,17594,2547,Tag0,unknown
1499247829412,0,68,1.4941406250000001E-5,53,74,44,16760115,17616,4355,10441,11344,5968,17594,2547,Tag0,unknown
1499247829412,0,52,1.142578125E-5,53,74,44,16760115,17616,4355,10441,11344,5968,17594,2547,Tag0,unknown
1499247829412,0,54,1.1865234375000001E-5,53,74,44,16760115,17616,4355,10441,11344,5968,17594,2547,Tag0,unknown
1499247829412,0,67,1.4721679687500002E-5,53,74,44,16760115,17616,4355,10441,11344,5968,17594,2547,Tag0,unknown
1499247829413,0,68,1.4941406250000001E-5,53,74,44,16760115,17616,4355,10441,11344,5968,17594,2547,Tag0,unknown
1499247829413,0,59,1.29638671875E-5,53,74,44,16760115,17616,4355,10441,11344,5968,17594,2547,Tag0,unknown
1499247829413,0,52,1.142578125E-5,53,74,44,16760115,17616,4355,10441,11344,5968,17594,2547,Tag0,unknown
1499247829413,0,48,1.0546875E-5,53,74,44,16760115,17616,4355,10441,11344,5968,17594,2547,Tag0,unknown
1499247829413,0,32,7.03125E-6,53,74,44,16760115,17616,4355,10441,11344,5968,17594,2547,Tag0,unknown
1499247829413,0,39,8.5693359375E-6,53,74,44,16760115,17616,4355,10441,11344,5968,17594,2547,Tag0,unknown
1499247829414,0,72,1.58203125E-5,53,74,44,16760115,17616,4355,10441,11344,5968,17594,2547,Tag0,unknown
1499247829414,0,89,1.95556640625E-5,53,74,44,16760115,17616,4355,10441,11344,5968,17594,2547,Tag0,unknown
1499247829414,0,71,1.56005859375E-5,53,74,44,16760115,17616,4355,10441,11344,5968,17594,2547,Tag0,unknown
1499247829414,0,51,1.1206054687499999E-5,53,74,44,16760115,17616,4355,10441,11344,5968,17594,2547,Tag0,unknown
1499247829414,0,42,9.228515625000002E-6,53,74,44,16760115,17616,4355,10441,11344,5968,17594,2547,Tag0,unknown
1499247829414,0,48,1.0546875E-5,53,74,44,16760115,17616,4355,10441,11344,5968,17594,2547,Tag0,unknown
1499247829415,0,59,1.29638671875E-5,53,74,44,16760115,17616,4355,10441,11344,5968,17594,2547,Tag0,unknown
1499247829415,0,76,1.669921875E-5,53,74,44,16760115,17616,4355,10441,11344,5968,17594,2547,Tag0,unknown
1499247829415,0,91,1.99951171875E-5,53,74,44,16760115,17616,4355,10441,11344,5968,17594,2547,Tag0,unknown
1499247829429,0,87,1.91162109375E-5,50,74,44,2684,1540,1197,3082,2614,1044,2103,565,Tag0,unknown
1499247829429,0,73,1.6040039062500002E-5,50,74,44,2684,1540,1197,3082,2614,1044,2103,565,Tag0,unknown
1499247829429,0,72,1.58203125E-5,50,74,44,2684,1540,1197,3082,2614,1044,2103,565,Tag0,unknown
1499247829430,0,69,1.51611328125E-5,50,74,44,2684,1540,1197,3082,2614,1044,2103,565,Tag0,unknown
1499247829430,0,57,1.2524414062500001E-5,50,74,44,2684,1540,1197,3082,2614,1044,2103,565,Tag0,unknown
1499247829430,0,38,8.349609375E-6,50,74,44,2684,1540,1197,3082,2614,1044,2103,565,Tag0,unknown
1499247829430,0,20,4.39453125E-6,50,74,44,2684,1540,1197,3082,2614,1044,2103,565,Tag0,unknown
1499247829430,0,13,2.8564453125E-6,50,74,44,2684,1540,1197,3082,2614,1044,2103,565,Tag0,unknown
1499247829430,0,8,1.7578125E-6,50,74,44,2684,1540,1197,3082,2614,1044,2103,565,Tag0,unknown
1499247829430,0,21,4.614257812500001E-6,50,74,44,2684,1540,1197,3082,2614,1044,2103,565,Tag0,unknown
1499247829430,0,35,7.6904296875E-6,50,74,44,2684,1540,1197,3082,2614,1044,2103,565,Tag0,unknown
1499247829430,0,29,6.3720703125E-6,50,74,44,2684,1540,1197,3082,2614,1044,2103,565,Tag0,unknown
1499247829431,0,35,7.6904296875E-6,50,74,44,2684,1540,1197,3082,2614,1044,2103,565,Tag0,unknown
1499247829431,0,33,7.2509765625E-6,50,74,44,2684,1540,1197,3082,2614,1044,2103,565,Tag0,unknown
1499247829431,0,33,7.2509765625E-6,50,74,44,2684,1540,1197,3082,2614,1044,2103,565,Tag0,unknown
1499247829431,0,51,1.1206054687499999E-5,50,74,44,2684,1540,1197,3082,2614,1044,2103,565,Tag0,unknown
1499247829431,0,76,1.669921875E-5,50,74,44,2684,1540,1197,3082,2614,1044,2103,565,Tag0,unknown
1499247829431,0,90,1.9775390625E-5,50,74,44,2684,1540,1197,3082,2614,1044,2103,565,Tag0,unknown
1499247829431,0,88,1.93359375E-5,50,74,44,2684,1540,1197,3082,2614,1044,2103,565,Tag0,unknown
1499247829431,0,70,1.5380859375E-5,50,74,44,2684,1540,1197,3082,2614,1044,2103,565,Tag0,unknown
1499247829432,0,33,7.2509765625E-6,50,74,44,2684,1540,1197,3082,2614,1044,2103,565,Tag0,unknown
1499247829432,0,10,2.197265625E-6,50,74,44,2684,1540,1197,3082,2614,1044,2103,565,Tag0,unknown
1499247829432,0,27,5.9326171875000005E-6,50,74,44,2684,1540,1197,3082,2614,1044,2103,565,Tag0,unknown
1499247829432,0,54,1.1865234375000001E-5,50,74,44,2684,1540,1197,3082,2614,1044,2103,565,Tag0,unknown
1499247829432,0,48,1.0546875E-5,50,74,44,2684,1540,1197,3082,2614,1044,2103,565,Tag0,unknown
1499247829432,0,16,3.515625E-6,50,74,44,2684,1540,1197,3082,2614,1044,2103,565,Tag0,unknown
1499247829432,0,8,1.7578125E-6,50,74,44,2684,1540,1197,3082,2614,1044,2103,565,Tag0,unknown
1499247829432,0,27,5.9326171875000005E-6,50,74,44,2684,1540,1197,3082,2614,1044,2103,565,Tag0,unknown
1499247829433,0,45,9.8876953125E-6,50,74,44,2684,1540,1197,3082,2614,1044,2103,565,Tag0,unknown
1499247829433,0,52,1.142578125E-5,50,74,44,2684,1540,1197,3082,2614,1044,2103,565,Tag0,unknown
1499247829433,0,52,1.142578125E-5,50,74,44,2684,1540,1197,3082,2614,1044,2103,565,Tag0,unknown
1499247829433,0,71,1.56005859375E-5,50,74,44,2684,1540,1197,3082,2614,1044,2103,565,Tag0,unknown
1499247829433,0,93,2.04345703125E-5,50,74,44,2684,1540,1197,3082,2614,1044,2103,565,Tag0,unknown
1499247829433,0,87,1.91162109375E-5,50,74,44,2684,1540,1197,3082,2614,1044,2103,565,Tag0,unknown
1499247829433,0,64,1.40625E-5,50,74,44,2684,1540,1197,3082,2614,1044,2103,565,Tag0,unknown
1499247829433,0,52,1.142578125E-5,50,74,44,2684,1540,1197,3082,2614,1044,2103,565,Tag0,unknown
1499247829434,0,59,1.29638671875E-5,50,74,44,2684,1540,1197,3082,2614,1044,2103,565,Tag0,unknown
1499247829434,0,69,1.51611328125E-5,50,74,44,2684,1540,1197,3082,2614,1044,2103,565,Tag0,unknown
1499247829434,0,65,1.42822265625E-5,50,74,44,2684,1540,1197,3082,2614,1044,2103,565,Tag0,unknown
1499247829434,0,73,1.6040039062500002E-5,50,74,44,2684,1540,1197,3082,2614,1044,2103,565,Tag0,unknown
1499247829434,0,92,2.021484375E-5,50,74,44,2684,1540,1197,3082,2614,1044,2103,565,Tag0,unknown
1499247829434,0,86,1.8896484375000003E-5,50,74,44,2684,1540,1197,3082,2614,1044,2103,565,Tag0,unknown
1499247829434,0,66,1.4501953125E-5,50,74,44,2684,1540,1197,3082,2614,1044,2103,565,Tag0,unknown
1499247829434,0,49,1.07666015625E-5,50,74,44,2684,1540,1197,3082,2614,1044,2103,565,Tag0,unknown
1499247829434,0,36,7.91015625E-6,50,74,44,2684,1540,1197,3082,2614,1044,2103,565,Tag0,unknown
1499247829435,0,40,8.7890625E-6,50,74,44,2684,1540,1197,3082,2614,1044,2103,565,Tag0,unknown
1499247829435,0,60,1.318359375E-5,50,74,44,2684,1540,1197,3082,2614,1044,2103,565,Tag0,unknown
1499247829435,0,80,1.7578125E-5,50,74,44,2684,1540,1197,3082,2614,1044,2103,565,Tag0,unknown
1499247829435,0,83,1.82373046875E-5,50,74,44,2684,1540,1197,3082,2614,1044,2103,565,Tag0,unknown
1499247829435,0,84,1.8457031250000004E-5,50,74,44,2684,1540,1197,3082,2614,1044,2103,565,Tag0,unknown
1499247829435,0,86,1.8896484375000003E-5,50,74,44,2684,1540,1197,3082,2614,1044,2103,565,Tag0,unknown
1499247829435,0,77,1.69189453125E-5,50,74,44,2684,1540,1197,3082,2614,1044,2103,565,Tag0,unknown
1499247829436,0,80,1.7578125E-5,50,74,44,2684,1540,1197,3082,2614,1044,2103,565,Tag0,unknown
1499247829436,0,83,1.82373046875E-5,50,74,44,2684,1540,1197,3082,2614,1044,2103,565,Tag0,unknown
1499247829436,0,72,1.58203125E-5,50,74,44,2684,1540,1197,3082,2614,1044,2103,565,Tag0,unknown
1499247829436,0,80,1.7578125E-5,50,74,44,2684,1540,1197,3082,2614,1044,2103,565,Tag0,unknown
1499247829436,0,93,2.04345703125E-5,50,74,44,2684,1540,1197,3082,2614,1044,2103,565,Tag0,unknown
1499247829436,0,99,2.1752929687500003E-5,50,74,44,2684,1540,1197,3082,2614,1044,2103,565,Tag0,unknown
1499247829436,0,99,2.1752929687500003E-5,50,74,44,2684,1540,1197,3082,2614,1044,2103,565,Tag0,unknown
1499247829437,0,98,2.1533203125E-5,50,74,44,2684,1540,1197,3082,2614,1044,2103,565,Tag0,unknown
1499247829437,0,97,2.13134765625E-5,50,74,44,2684,1540,1197,3082,2614,1044,2103,565,Tag0,unknown
1499247829437,0,98,2.1533203125E-5,50,74,44,2684,1540,1197,3082,2614,1044,2103,565,Tag0,unknown
1499247829437,0,103,2.26318359375E-5,50,74,44,2684,1540,1197,3082,2614,1044,2103,565,Tag0,unknown
1499247829437,0,120,2.63671875E-5,50,74,44,2684,1540,1197,3082,2614,1044,2103,565,Tag0,unknown
1499247829437,0,-116,-2.548828125E-5,50,74,44,2684,1540,1197,3082,2614,1044,2103,565,Tag0,unknown
1499247829437,0,-109,-2.39501953125E-5,50,74,44,2684,1540,1197,3082,2614,1044,2103,565,Tag0,unknown
1499247829437,0,-128,-2.8125E-5,50,74,44,2684,1540,1197,3082,2614,1044,2103,565,Tag0,unknown
1499247829438,0,99,2.1752929687500003E-5,50,74,44,2684,1540,1197,3082,2614,1044,2103,565,Tag0,unknown
1499247829438,0,98,2.1533203125E-5,50,74,44,2684,1540,1197,3082,2614,1044,2103,565,Tag0,unknown
1499247829438,0,-116,-2.548828125E-5,50,74,44,2684,1540,1197,3082,2614,1044,2103,565,Tag0,unknown
1499247829438,0,-90,-1.9775390625E-5,50,74,44,2684,1540,1197,3082,2614,1044,2103,565,Tag0,unknown
1499247829438,0,-109,-2.39501953125E-5,50,74,44,2684,1540,1197,3082,2614,1044,2103,565,Tag0,unknown
1499247829438,0,115,2.52685546875E-5,50,74,44,2684,1540,1197,3082,2614,1044,2103,565,Tag0,unknown
1499247829438,0,84,1.8457031250000004E-5,50,74,44,2684,1540,1197,3082,2614,1044,2103,565,Tag0,unknown
1499247829439,0,55,1.20849609375E-5,50,74,44,2684,1540,1197,3082,2614,1044,2103,565,Tag0,unknown
1499247829439,0,39,8.5693359375E-6,50,74,44,2684,1540,1197,3082,2614,1044,2103,565,Tag0,unknown
1499247829439,0,43,9.448242187500001E-6,50,74,44,2684,1540,1197,3082,2614,1044,2103,565,Tag0,unknown
1499247829439,0,56,1.23046875E-5,50,74,44,2684,1540,1197,3082,2614,1044,2103,565,Tag0,unknown
1499247829439,0,57,1.2524414062500001E-5,50,74,44,2684,1540,1197,3082,2614,1044,2103,565,Tag0,unknown
1499247829439,0,52,1.142578125E-5,50,74,44,2684,1540,1197,3082,2614,1044,2103,565,Tag0,unknown
1499247829439,0,39,8.5693359375E-6,50,74,44,2684,1540,1197,3082,2614,1044,2103,565,Tag0,unknown
1499247829439,0,34,7.4707031250000005E-6,50,74,44,2684,1540,1197,3082,2614,1044,2103,565,Tag0,unknown
1499247829439,0,37,8.1298828125E-6,50,74,44,2684,1540,1197,3082,2614,1044,2103,565,Tag0,unknown
1499247829440,0,61,1.34033203125E-5,50,74,44,2684,1540,1197,3082,2614,1044,2103,565,Tag0,unknown
1499247829440,0,64,1.40625E-5,50,74,44,2684,1540,1197,3082,2614,1044,2103,565,Tag0,unknown
1499247829440,0,55,1.20849609375E-5,50,74,44,2684,1540,1197,3082,2614,1044,2103,565,Tag0,unknown
1499247829440,0,73,1.6040039062500002E-5,50,74,44,2684,1540,1197,3082,2614,1044,2103,565,Tag0,unknown
1499247829440,0,76,1.669921875E-5,50,74,44,2684,1540,1197,3082,2614,1044,2103,565,Tag0,unknown
1499247829440,0,74,1.6259765625E-5,50,74,44,2684,1540,1197,3082,2614,1044,2103,565,Tag0,unknown
1499247829440,0,86,1.8896484375000003E-5,50,74,44,2684,1540,1197,3082,2614,1044,2103,565,Tag0,unknown
1499247829441,0,101,2.2192382812500002E-5,50,74,44,2684,1540,1197,3082,2614,1044,2103,565,Tag0,unknown
1499247829441,0,103,2.26318359375E-5,50,74,44,2684,1540,1197,3082,2614,1044,2103,565,Tag0,unknown
1499247829441,0,92,2.021484375E-5,50,74,44,2684,1540,1197,3082,2614,1044,2103,565,Tag0,unknown
1499247829441,0,88,1.93359375E-5,50,74,44,2684,1540,1197,3082,2614,1044,2103,565,Tag0,unknown
1499247829441,0,99,2.1752929687500003E-5,50,74,44,2684,1540,1197,3082,2614,1044,2103,565,Tag0,unknown
1499247829441,0,106,2.3291015625000003E-5,50,74,44,2684,1540,1197,3082,2614,1044,2103,565,Tag0,unknown
1499247829441,0,-125,-2.74658203125E-5,50,74,44,2684,1540,1197,3082,2614,1044,2103,565,Tag0,unknown
1499247829441,0,-108,-2.3730468750000002E-5,50,74,44,2684,1540,1197,3082,2614,1044,2103,565,Tag0,unknown
1499247829441,0,115,2.52685546875E-5,50,74,44,2684,1540,1197,3082,2614,1044,2103,565,Tag0,unknown
1499247829442,0,82,1.8017578124999998E-5,50,74,44,2684,1540,1197,3082,2614,1044,2103,565,Tag0,unknown
1499247829442,0,85,1.86767578125E-5,50,74,44,2684,1540,1197,3082,2614,1044,2103,565,Tag0,unknown
1499247829442,0,102,2.2412109374999998E-5,50,74,44,2684,1540,1197,3082,2614,1044,2103,565,Tag0,unknown
1499247829442,0,102,2.2412109374999998E-5,50,74,44,2684,1540,1197,3082,2614,1044,2103,565,Tag0,unknown
1499247829442,0,81,1.77978515625E-5,50,74,44,2684,1540,1197,3082,2614,1044,2103,565,Tag0,unknown
1499247829442,0,66,1.4501953125E-5,50,74,44,2684,1540,1197,3082,2614,1044,2103,565,Tag0,unknown
1499247829442,0,58,1.2744140625E-5,50,74,44,2684,1540,1197,3082,2614,1044,2103,565,Tag0,unknown
1499247829442,0,58,1.2744140625E-5,50,74,44,2684,1540,1197,3082,2614,1044,2103,565,Tag0,unknown
1499247829443,0,60,1.318359375E-5,50,74,44,2684,1540,1197,3082,2614,1044,2103,565,Tag0,unknown
1499247829443,0,70,1.5380859375E-5,50,74,44,2684,1540,1197,3082,2614,1044,2103,565,Tag0,unknown
1499247829443,0,87,1.91162109375E-5,50,74,44,2684,1540,1197,3082,2614,1044,2103,565,Tag0,unknown
1499247829443,0,100,2.197265625E-5,50,74,44,2684,1540,1197,3082,2614,1044,2103,565,Tag0,unknown
1499247829443,0,96,2.109375E-5,50,74,44,2684,1540,1197,3082,2614,1044,2103,565,Tag0,unknown
1499247829443,0,91,1.99951171875E-5,50,74,44,2684,1540,1197,3082,2614,1044,2103,565,Tag0,unknown
1499247829443,0,104,2.28515625E-5,50,74,44,2684,1540,1197,3082,2614,1044,2103,565,Tag0,unknown
1499247829443,0,101,2.2192382812500002E-5,50,74,44,2684,1540,1197,3082,2614,1044,2103,565,Tag0,unknown
1499247829443,0,60,1.318359375E-5,50,74,44,2684,1540,1197,3082,2614,1044,2103,565,Tag0,unknown
1499247829444,0,44,9.66796875E-6,50,74,44,2684,1540,1197,3082,2614,1044,2103,565,Tag0,unknown
1499247829444,0,54,1.1865234375000001E-5,50,74,44,2684,1540,1197,3082,2614,1044,2103,565,Tag0,unknown
1499247829444,0,53,1.1645507812500002E-5,50,74,44,2684,1540,1197,3082,2614,1044,2103,565,Tag0,unknown
1499247829444,0,49,1.07666015625E-5,50,74,44,2684,1540,1197,3082,2614,1044,2103,565,Tag0,unknown
1499247829444,0,59,1.29638671875E-5,50,74,44,2684,1540,1197,3082,2614,1044,2103,565,Tag0,unknown
1499247829444,0,59,1.29638671875E-5,50,74,44,2684,1540,1197,3082,2614,1044,2103,565,Tag0,unknown
1499247829444,0,40,8.7890625E-6,50,74,44,2684,1540,1197,3082,2614,1044,2103,565,Tag0,unknown
1499247829444,0,38,8.349609375E-6,50,74,44,2684,1540,1197,3082,2614,1044,2103,565,Tag0,unknown
1499247829445,0,70,1.5380859375E-5,50,74,44,2684,1540,1197,3082,2614,1044,2103,565,Tag0,unknown
1499247829445,0,92,2.021484375E-5,50,74,44,2684,1540,1197,3082,2614,1044,2103,565,Tag0,unknown
1499247829445,0,70,1.5380859375E-5,50,74,44,2684,1540,1197,3082,2614,1044,2103,565,Tag0,unknown
1499247829445,0,49,1.07666015625E-5,50,74,44,2684,1540,1197,3082,2614,1044,2103,565,Tag0,unknown
1499247829445,0,67,1.4721679687500002E-5,50,74,44,2684,1540,1197,3082,2614,1044,2103,565,Tag0,unknown
1499247829445,0,87,1.91162109375E-5,50,74,44,2684,1540,1197,3082,2614,1044,2103,565,Tag0,unknown
1499247829445,0,69,1.51611328125E-5,50,74,44,2684,1540,1197,3082,2614,1044,2103,565,Tag0,unknown
1499247829446,0,71,1.56005859375E-5,50,74,44,2684,1540,1197,3082,2614,1044,2103,565,Tag0,unknown
1499247829446,0,89,1.95556640625E-5,50,74,44,2684,1540,1197,3082,2614,1044,2103,565,Tag0,unknown
1499247829446,0,92,2.021484375E-5,50,74,44,2684,1540,1197,3082,2614,1044,2103,565,Tag0,unknown
1499247829446,0,93,2.04345703125E-5,50,74,44,2684,1540,1197,3082,2614,1044,2103,565,Tag0,unknown
1499247829446,0,97,2.13134765625E-5,50,74,44,2684,1540,1197,3082,2614,1044,2103,565,Tag0,unknown
1499247829446,0,123,2.70263671875E-5,50,74,44,2684,1540,1197,3082,2614,1044,2103,565,Tag0,unknown
1499247829446,0,115,2.52685546875E-5,50,74,44,2684,1540,1197,3082,2614,1044,2103,565,Tag0,unknown
1499247829447,0,83,1.82373046875E-5,50,74,44,2684,1540,1197,3082,2614,1044,2103,565,Tag0,unknown
1499247829447,0,68,1.4941406250000001E-5,50,74,44,2684,1540,1197,3082,2614,1044,2103,565,Tag0,unknown
1499247829447,0,57,1.2524414062500001E-5,50,74,44,2684,1540,1197,3082,2614,1044,2103,565,Tag0,unknown
1499247829447,0,48,1.0546875E-5,50,74,44,2684,1540,1197,3082,2614,1044,2103,565,Tag0,unknown
1499247829447,0,38,8.349609375E-6,50,74,44,2684,1540,1197,3082,2614,1044,2103,565,Tag0,unknown
1499247829447,0,28,6.15234375E-6,50,74,44,2684,1540,1197,3082,2614,1044,2103,565,Tag0,unknown
1499247829447,0,40,8.7890625E-6,50,74,44,2684,1540,1197,3082,2614,1044,2103,565,Tag0,unknown
1499247829448,0,74,1.6259765625E-5,50,74,44,2684,1540,1197,3082,2614,1044,2103,565,Tag0,unknown
1499247829448,0,96,2.109375E-5,50,74,44,2684,1540,1197,3082,2614,1044,2103,565,Tag0,unknown
1499247829448,0,101,2.2192382812500002E-5,50,74,44,2684,1540,1197,3082,2614,1044,2103,565,Tag0,unknown
1499247829448,0,91,1.99951171875E-5,50,74,44,2684,1540,1197,3082,2614,1044,2103,565,Tag0,unknown
1499247829448,0,73,1.6040039062500002E-5,50,74,44,2684,1540,1197,3082,2614,1044,2103,565,Tag0,unknown
1499247829448,0,84,1.8457031250000004E-5,50,74,44,2684,1540,1197,3082,2614,1044,2103,565,Tag0,unknown
1499247829448,0,102,2.2412109374999998E-5,50,74,44,2684,1540,1197,3082,2614,1044,2103,565,Tag0,unknown
1499247829448,0,86,1.8896484375000003E-5,50,74,44,2684,1540,1197,3082,2614,1044,2103,565,Tag0,unknown
1499247829449,0,55,1.20849609375E-5,50,74,44,2684,1540,1197,3082,2614,1044,2103,565,Tag0,unknown
1499247829449,0,39,8.5693359375E-6,50,74,44,2684,1540,1197,3082,2614,1044,2103,565,Tag0,unknown
1499247829449,0,66,1.4501953125E-5,50,74,44,2684,1540,1197,3082,2614,1044,2103,565,Tag0,unknown
1499247829449,0,87,1.91162109375E-5,50,74,44,2684,1540,1197,3082,2614,1044,2103,565,Tag0,unknown
1499247829449,0,85,1.86767578125E-5,50,74,44,2684,1540,1197,3082,2614,1044,2103,565,Tag0,unknown
1499247829449,0,76,1.669921875E-5,50,74,44,2684,1540,1197,3082,2614,1044,2103,565,Tag0,unknown
1499247829449,0,83,1.82373046875E-5,50,74,44,2684,1540,1197,3082,2614,1044,2103,565,Tag0,unknown
1499247829449,0,101,2.2192382812500002E-5,50,74,44,2684,1540,1197,3082,2614,1044,2103,565,Tag0,unknown
1499247829449,0,82,1.8017578124999998E-5,50,74,44,2684,1540,1197,3082,2614,1044,2103,565,Tag0,unknown
1499247829450,0,50,1.0986328125E-5,50,74,44,2684,1540,1197,3082,2614,1044,2103,565,Tag0,unknown
1499247829450,0,55,1.20849609375E-5,50,74,44,2684,1540,1197,3082,2614,1044,2103,565,Tag0,unknown
1499247829450,0,53,1.1645507812500002E-5,50,74,44,2684,1540,1197,3082,2614,1044,2103,565,Tag0,unknown
1499247829450,0,39,8.5693359375E-6,50,74,44,2684,1540,1197,3082,2614,1044,2103,565,Tag0,unknown
1499247829450,0,23,5.0537109375E-6,50,74,44,2684,1540,1197,3082,2614,1044,2103,565,Tag0,unknown
1499247829450,0,8,1.7578125E-6,50,74,44,2684,1540,1197,3082,2614,1044,2103,565,Tag0,unknown
1499247829450,0,4,8.7890625E-7,50,74,44,2684,1540,1197,3082,2614,1044,2103,565,Tag0,unknown
1499247829450,0,24,5.2734375E-6,50,74,44,2684,1540,1197,3082,2614,1044,2103,565,Tag0,unknown
1499247829451,0,51,1.1206054687499999E-5,50,74,44,2684,1540,1197,3082,2614,1044,2103,565,Tag0,unknown
1499247829451,0,50,1.0986328125E-5,50,74,44,2684,1540,1197,3082,2614,1044,2103,565,Tag0,unknown
1499247829451,0,35,7.6904296875E-6,50,74,44,2684,1540,1197,3082,2614,1044,2103,565,Tag0,unknown
1499247829451,0,22,4.833984375E-6,50,74,44,2684,1540,1197,3082,2614,1044,2103,565,Tag0,unknown
1499247829451,0,20,4.39453125E-6,50,74,44,2684,1540,1197,3082,2614,1044,2103,565,Tag0,unknown
1499247829451,0,36,7.91015625E-6,50,74,44,2684,1540,1197,3082,2614,1044,2103,565,Tag0,unknown
1499247829451,0,64,1.40625E-5,50,74,44,2684,1540,1197,3082,2614,1044,2103,565,Tag0,unknown
1499247829451,0,81,1.77978515625E-5,50,74,44,2684,1540,1197,3082,2614,1044,2103,565,Tag0,unknown
1499247829451,0,76,1.669921875E-5,50,74,44,2684,1540,1197,3082,2614,1044,2103,565,Tag0,unknown
1499247829452,0,57,1.2524414062500001E-5,50,74,44,2684,1540,1197,3082,2614,1044,2103,565,Tag0,unknown
1499247829452,0,43,9.448242187500001E-6,50,74,44,2684,1540,1197,3082,2614,1044,2103,565,Tag0,unknown
1499247829452,0,36,7.91015625E-6,50,74,44,2684,1540,1197,3082,2614,1044,2103,565,Tag0,unknown
1499247829452,0,43,9.448242187500001E-6,50,74,44,2684,1540,1197,3082,2614,1044,2103,565,Tag0,unknown
1499247829452,0,65,1.42822265625E-5,50,74,44,2684,1540,1197,3082,2614,1044,2103,565,Tag0,unknown
1499247829452,0,68,1.4941406250000001E-5,50,74,44,2684,1540,1197,3082,2614,1044,2103,565,Tag0,unknown
1499247829452,0,60,1.318359375E-5,50,74,44,2684,1540,1197,3082,2614,1044,2103,565,Tag0,unknown
1499247829452,0,60,1.318359375E-5,50,74,44,2684,1540,1197,3082,2614,1044,2103,565,Tag0,unknown
1499247829453,0,50,1.0986328125E-5,50,74,44,2684,1540,1197,3082,2614,1044,2103,565,Tag0,unknown
1499247829453,0,40,8.7890625E-6,50,74,44,2684,1540,1197,3082,2614,1044,2103,565,Tag0,unknown
1499247829453,0,57,1.2524414062500001E-5,50,74,44,2684,1540,1197,3082,2614,1044,2103,565,Tag0,unknown
1499247829453,0,72,1.58203125E-5,50,74,44,2684,1540,1197,3082,2614,1044,2103,565,Tag0,unknown
1499247829453,0,73,1.6040039062500002E-5,50,74,44,2684,1540,1197,3082,2614,1044,2103,565,Tag0,unknown
1499247829453,0,83,1.82373046875E-5,50,74,44,2684,1540,1197,3082,2614,1044,2103,565,Tag0,unknown
1499247829453,0,92,2.021484375E-5,50,74,44,2684,1540,1197,3082,2614,1044,2103,565,Tag0,unknown
1499247829453,0,102,2.2412109374999998E-5,50,74,44,2684,1540,1197,3082,2614,1044,2103,565,Tag0,unknown
1499247829454,0,104,2.28515625E-5,50,74,44,2684,1540,1197,3082,2614,1044,2103,565,Tag0,unknown
1499247829454,0,98,2.1533203125E-5,50,74,44,2684,1540,1197,3082,2614,1044,2103,565,Tag0,unknown
1499247829454,0,86,1.8896484375000003E-5,50,74,44,2684,1540,1197,3082,2614,1044,2103,565,Tag0,unknown
1499247829454,0,60,1.318359375E-5,50,74,44,2684,1540,1197,3082,2614,1044,2103,565,Tag0,unknown
1499247829454,0,33,7.2509765625E-6,50,74,44,2684,1540,1197,3082,2614,1044,2103,565,Tag0,unknown
1499247829454,0,22,4.833984375E-6,50,74,44,2684,1540,1197,3082,2614,1044,2103,565,Tag0,unknown
1499247829454,0,34,7.4707031250000005E-6,50,74,44,2684,1540,1197,3082,2614,1044,2103,565,Tag0,unknown
1499247829454,0,49,1.07666015625E-5,50,74,44,2684,1540,1197,3082,2614,1044,2103,565,Tag0,unknown
1499247829455,0,66,1.4501953125E-5,50,74,44,2684,1540,1197,3082,2614,1044,2103,565,Tag0,unknown
1499247829455,0,80,1.7578125E-5,50,74,44,2684,1540,1197,3082,2614,1044,2103,565,Tag0,unknown
1499247829455,0,68,1.4941406250000001E-5,50,74,44,2684,1540,1197,3082,2614,1044,2103,565,Tag0,unknown
1499247829455,0,22,4.833984375E-6,50,74,44,2684,1540,1197,3082,2614,1044,2103,565,Tag0,unknown
1499247829455,0,8,1.7578125E-6,50,74,44,2684,1540,1197,3082,2614,1044,2103,565,Tag0,unknown
1499247829455,0,39,8.5693359375E-6,50,74,44,2684,1540,1197,3082,2614,1044,2103,565,Tag0,unknown
1499247829455,0,73,1.6040039062500002E-5,50,74,44,2684,1540,1197,3082,2614,1044,2103,565,Tag0,unknown
1499247829456,0,106,2.3291015625000003E-5,50,74,44,2684,1540,1197,3082,2614,1044,2103,565,Tag0,unknown
1499247829456,0,115,2.52685546875E-5,50,74,44,2684,1540,1197,3082,2614,1044,2103,565,Tag0,unknown
1499247829456,0,90,1.9775390625E-5,50,74,44,2684,1540,1197,3082,2614,1044,2103,565,Tag0,unknown
1499247829456,0,84,1.8457031250000004E-5,50,74,44,2684,1540,1197,3082,2614,1044,2103,565,Tag0,unknown
1499247829456,0,82,1.8017578124999998E-5,50,74,44,2684,1540,1197,3082,2614,1044,2103,565,Tag0,unknown
1499247829456,0,74,1.6259765625E-5,50,74,44,2684,1540,1197,3082,2614,1044,2103,565,Tag0,unknown
1499247829457,0,58,1.2744140625E-5,50,74,44,2684,1540,1197,3082,2614,1044,2103,565,Tag0,unknown
1499247829457,0,55,1.20849609375E-5,50,74,44,2684,1540,1197,3082,2614,1044,2103,565,Tag0,unknown
1499247829457,0,73,1.6040039062500002E-5,50,74,44,2684,1540,1197,3082,2614,1044,2103,565,Tag0,unknown
1499247829457,0,99,2.1752929687500003E-5,50,74,44,2684,1540,1197,3082,2614,1044,2103,565,Tag0,unknown
1499247829457,0,107,2.35107421875E-5,50,74,44,2684,1540,1197,3082,2614,1044,2103,565,Tag0,unknown
1499247829457,0,72,1.58203125E-5,50,74,44,2684,1540,1197,3082,2614,1044,2103,565,Tag0,unknown
1499247829457,0,38,8.349609375E-6,50,74,44,2684,1540,1197,3082,2614,1044,2103,565,Tag0,unknown
1499247829458,0,56,1.23046875E-5,50,74,44,2684,1540,1197,3082,2614,1044,2103,565,Tag0,unknown
1499247829458,0,65,1.42822265625E-5,50,74,44,2684,1540,1197,3082,2614,1044,2103,565,Tag0,unknown
1499247829458,0,17,3.7353515625000003E-6,50,74,44,2684,1540,1197,3082,2614,1044,2103,565,Tag0,unknown
1499247829458,0,-281,-6.17431640625E-5,50,74,44,2684,1540,1197,3082,2614,1044,2103,565,Tag0,unknown
1499247829458,0,-280,-6.15234375E-5,50,74,44,2684,1540,1197,3082,2614,1044,2103,565,Tag0,unknown
1499247829458,0,16,3.515625E-6,50,74,44,2684,1540,1197,3082,2614,1044,2103,565,Tag0,unknown
1499247829459,0,44,9.66796875E-6,50,74,44,2684,1540,1197,3082,2614,1044,2103,565,Tag0,unknown
1499247829459,0,48,1.0546875E-5,50,74,44,2684,1540,1197,3082,2614,1044,2103,565,Tag0,unknown
1499247829459,0,26,5.712890625E-6,50,74,44,2684,1540,1197,3082,2614,1044,2103,565,Tag0,unknown
1499247829459,0,6,1.318359375E-6,50,74,44,2684,1540,1197,3082,2614,1044,2103,565,Tag0,unknown
1499247829464,0,16,3.515625E-6,50,74,44,2684,1540,1197,3082,2614,1044,2103,565,Tag0,unknown
1499247829464,0,51,1.1206054687499999E-5,50,74,44,2684,1540,1197,3082,2614,1044,2103,565,Tag0,unknown
1499247829464,0,86,1.8896484375000003E-5,50,74,44,2684,1540,1197,3082,2614,1044,2103,565,Tag0,unknown
1499247829464,0,81,1.77978515625E-5,50,74,44,2684,1540,1197,3082,2614,1044,2103,565,Tag0,unknown
1499247829464,0,69,1.51611328125E-5,50,74,44,2684,1540,1197,3082,2614,1044,2103,565,Tag0,unknown
1499247829464,0,58,1.2744140625E-5,50,74,44,2684,1540,1197,3082,2614,1044,2103,565,Tag0,unknown
1499247829464,0,41,9.008789062499999E-6,50,74,44,2684,1540,1197,3082,2614,1044,2103,565,Tag0,unknown
1499247829464,0,27,5.9326171875000005E-6,50,74,44,2684,1540,1197,3082,2614,1044,2103,565,Tag0,unknown
1499247829465,0,36,7.91015625E-6,50,74,44,2684,1540,1197,3082,2614,1044,2103,565,Tag0,unknown
1499247829465,0,44,9.66796875E-6,50,74,44,2684,1540,1197,3082,2614,1044,2103,565,Tag0,unknown
1499247829465,0,54,1.1865234375000001E-5,50,74,44,2684,1540,1197,3082,2614,1044,2103,565,Tag0,unknown
1499247829465,0,72,1.58203125E-5,50,74,44,2684,1540,1197,3082,2614,1044,2103,565,Tag0,unknown
1499247829465,0,74,1.6259765625E-5,50,74,44,2684,1540,1197,3082,2614,1044,2103,565,Tag0,unknown
1499247829465,0,66,1.4501953125E-5,50,74,44,2684,1540,1197,3082,2614,1044,2103,565,Tag0,unknown
1499247829466,0,83,1.82373046875E-5,50,74,44,2684,1540,1197,3082,2614,1044,2103,565,Tag0,unknown
1499247829466,0,89,1.95556640625E-5,50,74,44,2684,1540,1197,3082,2614,1044,2103,565,Tag0,unknown
1499247830593,0,77,1.69189453125E-5,50,74,44,2684,1540,1197,3082,2614,1044,2103,565,Tag0,unknown
1499247830593,0,49,1.07666015625E-5,50,74,44,2684,1540,1197,3082,2614,1044,2103,565,Tag0,unknown
1499247830594,0,41,9.008789062499999E-6,50,74,44,2684,1540,1197,3082,2614,1044,2103,565,Tag0,unknown
1499247830594,0,53,1.1645507812500002E-5,50,74,44,2684,1540,1197,3082,2614,1044,2103,565,Tag0,unknown
1499247830594,0,51,1.1206054687499999E-5,50,74,44,2684,1540,1197,3082,2614,1044,2103,565,Tag0,unknown
1499247830594,0,32,7.03125E-6,50,74,44,2684,1540,1197,3082,2614,1044,2103,565,Tag0,unknown
1499247830595,0,32,7.03125E-6,50,74,44,2684,1540,1197,3082,2614,1044,2103,565,Tag0,unknown
1499247830595,0,54,1.1865234375000001E-5,50,74,44,2684,1540,1197,3082,2614,1044,2103,565,Tag0,unknown
1499247830595,0,64,1.40625E-5,50,74,44,2684,1540,1197,3082,2614,1044,2103,565,Tag0,unknown
1499247830596,0,68,1.4941406250000001E-5,50,74,44,2684,1540,1197,3082,2614,1044,2103,565,Tag0,unknown
1499247830596,0,70,1.5380859375E-5,50,74,44,2684,1540,1197,3082,2614,1044,2103,565,Tag0,unknown
1499247830596,0,64,1.40625E-5,50,74,44,2684,1540,1197,3082,2614,1044,2103,565,Tag0,unknown
1499247830597,0,67,1.4721679687500002E-5,50,74,44,2684,1540,1197,3082,2614,1044,2103,565,Tag0,unknown
1499247830597,0,73,1.6040039062500002E-5,50,74,44,2684,1540,1197,3082,2614,1044,2103,565,Tag0,unknown
1499247830598,0,61,1.34033203125E-5,50,74,44,2684,1540,1197,3082,2614,1044,2103,565,Tag0,unknown
1499247830598,0,60,1.318359375E-5,50,74,44,2684,1540,1197,3082,2614,1044,2103,565,Tag0,unknown
1499247830599,0,75,1.64794921875E-5,50,74,44,2684,1540,1197,3082,2614,1044,2103,565,Tag0,unknown
1499247830599,0,70,1.5380859375E-5,50,74,44,2684,1540,1197,3082,2614,1044,2103,565,Tag0,unknown
1499247830599,0,43,9.448242187500001E-6,50,74,44,2684,1540,1197,3082,2614,1044,2103,565,Tag0,unknown
1499247830600,0,25,5.4931640625E-6,50,74,44,2684,1540,1197,3082,2614,1044,2103,565,Tag0,unknown
1499247830600,0,12,2.63671875E-6,50,74,44,2684,1540,1197,3082,2614,1044,2103,565,Tag0,unknown
1499247830601,0,29,6.3720703125E-6,50,74,44,2684,1540,1197,3082,2614,1044,2103,565,Tag0,unknown
1499247830601,0,60,1.318359375E-5,50,74,44,2684,1540,1197,3082,2614,1044,2103,565,Tag0,unknown
1499247830601,0,83,1.82373046875E-5,50,74,44,2684,1540,1197,3082,2614,1044,2103,565,Tag0,unknown
1499247830602,0,59,1.29638671875E-5,50,74,44,2684,1540,1197,3082,2614,1044,2103,565,Tag0,unknown
1499247830602,0,32,7.03125E-6,50,74,44,2684,1540,1197,3082,2614,1044,2103,565,Tag0,unknown
1499247830602,0,41,9.008789062499999E-6,50,74,44,2684,1540,1197,3082,2614,1044,2103,565,Tag0,unknown
1499247830602,0,86,1.8896484375000003E-5,50,74,44,2684,1540,1197,3082,2614,1044,2103,565,Tag0,unknown
1499247830602,0,97,2.13134765625E-5,50,74,44,2684,1540,1197,3082,2614,1044,2103,565,Tag0,unknown
