timestampMs,poorSignal,eegRawValue,eegRawValueVolts,attention,meditation,blinkStrength,delta,theta,alphaLow,alphaHigh,betaLow,betaHigh,gammaLow,gammaMid,tagEvent,location
1500020196159,0,69,1.51611328125E-5,61,60,75,753,3773,578,1673,1414,1453,450,313,Tag0,unknown
1500020196164,0,84,1.8457031250000004E-5,61,60,75,753,3773,578,1673,1414,1453,450,313,Tag0,unknown
1500020196165,0,106,2.3291015625000003E-5,61,60,75,753,3773,578,1673,1414,1453,450,313,Tag0,unknown
1500020196165,0,107,2.35107421875E-5,61,60,75,753,3773,578,1673,1414,1453,450,313,Tag0,unknown
1500020196166,0,92,2.021484375E-5,61,60,75,753,3773,578,1673,1414,1453,450,313,Tag0,unknown
1500020196166,0,80,1.7578125E-5,61,60,75,753,3773,578,1673,1414,1453,450,313,Tag0,unknown
1500020196167,0,83,1.82373046875E-5,61,60,75,753,3773,578,1673,1414,1453,450,313,Tag0,unknown
1500020196167,0,101,2.2192382812500002E-5,61,60,75,753,3773,578,1673,1414,1453,450,313,Tag0,unknown
1500020196168,0,114,2.5048828125000003E-5,61,60,75,753,3773,578,1673,1414,1453,450,313,Tag0,unknown
1500020196168,0,88,1.93359375E-5,61,60,75,753,3773,578,1673,1414,1453,450,313,Tag0,unknown
1500020196169,0,38,8.349609375E-6,61,60,75,753,3773,578,1673,1414,1453,450,313,Tag0,unknown
1500020196169,0,23,5.0537109375E-6,61,60,75,753,3773,578,1673,1414,1453,450,313,Tag0,unknown
1500020196170,0,39,8.5693359375E-6,61,60,75,753,3773,578,1673,1414,1453,450,313,Tag0,unknown
1500020196170,0,58,1.2744140625E-5,61,60,75,753,3773,578,1673,1414,1453,450,313,Tag0,unknown
1500020196171,0,54,1.1865234375000001E-5,61,60,75,753,3773,578,1673,1414,1453,450,313,Tag0,unknown
1500020196171,0,45,9.8876953125E-6,61,60,75,753,3773,578,1673,1414,1453,450,313,Tag0,unknown
1500020196172,0,57,1.2524414062500001E-5,61,60,75,753,3773,578,1673,1414,1453,450,313,Tag0,unknown
1500020196172,0,76,1.669921875E-5,61,60,75,753,3773,578,1673,1414,1453,450,313,Tag0,unknown
1500020196173,0,89,1.95556640625E-5,61,60,75,753,3773,578,1673,1414,1453,450,313,Tag0,unknown
1500020196180,0,86,1.8896484375000003E-5,61,60,75,753,3773,578,1673,1414,1453,450,313,Tag0,unknown
1500020196182,0,57,1.2524414062500001E-5,61,60,75,753,3773,578,1673,1414,1453,450,313,Tag0,unknown
1500020196182,0,38,8.349609375E-6,61,60,75,753,3773,578,1673,1414,1453,450,313,Tag0,unknown
1500020196183,0,42,9.228515625000002E-6,61,60,75,753,3773,578,1673,1414,1453,450,313,Tag0,unknown
1500020196183,0,54,1.1865234375000001E-5,61,60,75,753,3773,578,1673,1414,1453,450,313,Tag0,unknown
1500020196184,0,52,1.142578125E-5,61,60,75,753,3773,578,1673,1414,1453,450,313,Tag0,unknown
1500020196185,0,39,8.5693359375E-6,61,60,75,753,3773,578,1673,1414,1453,450,313,Tag0,unknown
1500020196186,0,28,6.15234375E-6,61,60,75,753,3773,578,1673,1414,1453,450,313,Tag0,unknown
1500020196186,0,34,7.4707031250000005E-6,61,60,75,753,3773,578,1673,1414,1453,450,313,Tag0,unknown
1500020196187,0,56,1.23046875E-5,61,60,75,753,3773,578,1673,1414,1453,450,313,Tag0,unknown
1500020196187,0,66,1.4501953125E-5,61,60,75,753,3773,578,1673,1414,1453,450,313,Tag0,unknown
1500020196187,0,57,1.2524414062500001E-5,61,60,75,753,3773,578,1673,1414,1453,450,313,Tag0,unknown
1500020196188,0,56,1.23046875E-5,61,60,75,753,3773,578,1673,1414,1453,450,313,Tag0,unknown
1500020196188,0,74,1.6259765625E-5,61,60,75,753,3773,578,1673,1414,1453,450,313,Tag0,unknown
1500020196189,0,81,1.77978515625E-5,61,60,75,753,3773,578,1673,1414,1453,450,313,Tag0,unknown
1500020196189,0,50,1.0986328125E-5,61,60,75,753,3773,578,1673,1414,1453,450,313,Tag0,unknown
1500020196190,0,8,1.7578125E-6,61,60,75,753,3773,578,1673,1414,1453,450,313,Tag0,unknown
1500020196190,0,0,0.0,61,60,75,753,3773,578,1673,1414,1453,450,313,Tag0,unknown
1500020196190,0,21,4.614257812500001E-6,61,60,75,753,3773,578,1673,1414,1453,450,313,Tag0,unknown
1500020196191,0,52,1.142578125E-5,61,60,75,753,3773,578,1673,1414,1453,450,313,Tag0,unknown
1500020196192,0,68,1.4941406250000001E-5,61,60,75,753,3773,578,1673,1414,1453,450,313,Tag0,unknown
1500020196225,0,52,1.142578125E-5,61,60,75,753,3773,578,1673,1414,1453,450,313,Tag0,unknown
1500020196226,0,26,5.712890625E-6,61,60,75,753,3773,578,1673,1414,1453,450,313,Tag0,unknown
1500020196226,0,28,6.15234375E-6,61,60,75,753,3773,578,1673,1414,1453,450,313,Tag0,unknown
1500020196230,0,42,9.228515625000002E-6,61,60,75,753,3773,578,1673,1414,1453,450,313,Tag0,unknown
1500020196231,0,48,1.0546875E-5,61,60,75,753,3773,578,1673,1414,1453,450,313,Tag0,unknown
1500020196231,0,43,9.448242187500001E-6,61,60,75,753,3773,578,1673,1414,1453,450,313,Tag0,unknown
1500020196231,0,28,6.15234375E-6,61,60,75,753,3773,578,1673,1414,1453,450,313,Tag0,unknown
1500020196231,0,21,4.614257812500001E-6,61,60,75,753,3773,578,1673,1414,1453,450,313,Tag0,unknown
1500020196232,0,41,9.008789062499999E-6,61,60,75,753,3773,578,1673,1414,1453,450,313,Tag0,unknown
1500020196232,0,72,1.58203125E-5,61,60,75,753,3773,578,1673,1414,1453,450,313,Tag0,unknown
1500020196232,0,91,1.99951171875E-5,61,60,75,753,3773,578,1673,1414,1453,450,313,Tag0,unknown
1500020196232,0,84,1.8457031250000004E-5,61,60,75,753,3773,578,1673,1414,1453,450,313,Tag0,unknown
1500020196233,0,56,1.23046875E-5,61,60,75,753,3773,578,1673,1414,1453,450,313,Tag0,unknown
1500020196233,0,41,9.008789062499999E-6,61,60,75,753,3773,578,1673,1414,1453,450,313,Tag0,unknown
1500020196233,0,42,9.228515625000002E-6,61,60,75,753,3773,578,1673,1414,1453,450,313,Tag0,unknown
1500020196233,0,44,9.66796875E-6,61,60,75,753,3773,578,1673,1414,1453,450,313,Tag0,unknown
1500020196234,0,38,8.349609375E-6,61,60,75,753,3773,578,1673,1414,1453,450,313,Tag0,unknown
1500020196234,0,28,6.15234375E-6,61,60,75,753,3773,578,1673,1414,1453,450,313,Tag0,unknown
1500020196234,0,38,8.349609375E-6,61,60,75,753,3773,578,1673,1414,1453,450,313,Tag0,unknown
1500020196234,0,61,1.34033203125E-5,61,60,75,753,3773,578,1673,1414,1453,450,313,Tag0,unknown
1500020196235,0,71,1.56005859375E-5,61,60,75,753,3773,578,1673,1414,1453,450,313,Tag0,unknown
1500020196235,0,56,1.23046875E-5,61,60,75,753,3773,578,1673,1414,1453,450,313,Tag0,unknown
1500020196235,0,45,9.8876953125E-6,61,60,75,753,3773,578,1673,1414,1453,450,313,Tag0,unknown
1500020196235,0,60,1.318359375E-5,61,60,75,753,3773,578,1673,1414,1453,450,313,Tag0,unknown
1500020196246,0,87,1.91162109375E-5,61,60,75,753,3773,578,1673,1414,1453,450,313,Tag0,unknown
1500020196246,0,85,1.86767578125E-5,61,60,75,753,3773,578,1673,1414,1453,450,313,Tag0,unknown
1500020196247,0,56,1.23046875E-5,61,60,75,753,3773,578,1673,1414,1453,450,313,Tag0,unknown
1500020196247,0,33,7.2509765625E-6,61,60,75,753,3773,578,1673,1414,1453,450,313,Tag0,unknown
1500020196247,0,29,6.3720703125E-6,61,60,75,753,3773,578,1673,1414,1453,450,313,Tag0,unknown
1500020196247,0,52,1.142578125E-5,61,60,75,753,3773,578,1673,1414,1453,450,313,Tag0,unknown
1500020196290,0,69,1.51611328125E-5,61,60,75,753,3773,578,1673,1414,1453,450,313,Tag0,unknown
1500020196298,0,59,1.29638671875E-5,61,60,75,753,3773,578,1673,1414,1453,450,313,Tag0,unknown
1500020196299,0,43,9.448242187500001E-6,61,60,75,753,3773,578,1673,1414,1453,450,313,Tag0,unknown
1500020196299,0,59,1.29638671875E-5,61,60,75,753,3773,578,1673,1414,1453,450,313,Tag0,unknown
1500020196300,0,99,2.1752929687500003E-5,61,60,75,753,3773,578,1673,1414,1453,450,313,Tag0,unknown
1500020196300,0,122,2.6806640625E-5,61,60,75,753,3773,578,1673,1414,1453,450,313,Tag0,unknown
1500020196301,0,121,2.6586914062500003E-5,61,60,75,753,3773,578,1673,1414,1453,450,313,Tag0,unknown
1500020196301,0,108,2.3730468750000002E-5,61,60,75,753,3773,578,1673,1414,1453,450,313,Tag0,unknown
1500020196302,0,96,2.109375E-5,61,60,75,753,3773,578,1673,1414,1453,450,313,Tag0,unknown
1500020196302,0,97,2.13134765625E-5,61,60,75,753,3773,578,1673,1414,1453,450,313,Tag0,unknown
1500020196303,0,117,2.5708007812499998E-5,61,60,75,753,3773,578,1673,1414,1453,450,313,Tag0,unknown
1500020196303,0,-128,-2.8125E-5,61,60,75,753,3773,578,1673,1414,1453,450,313,Tag0,unknown
1500020196304,0,119,2.6147460937500004E-5,61,60,75,753,3773,578,1673,1414,1453,450,313,Tag0,unknown
1500020196304,0,115,2.52685546875E-5,61,60,75,753,3773,578,1673,1414,1453,450,313,Tag0,unknown
1500020196305,0,121,2.6586914062500003E-5,61,60,75,753,3773,578,1673,1414,1453,450,313,Tag0,unknown
1500020196305,0,117,2.5708007812499998E-5,61,60,75,753,3773,578,1673,1414,1453,450,313,Tag0,unknown
1500020196306,0,98,2.1533203125E-5,61,60,75,753,3773,578,1673,1414,1453,450,313,Tag0,unknown
1500020196306,0,70,1.5380859375E-5,61,60,75,753,3773,578,1673,1414,1453,450,313,Tag0,unknown
1500020196307,0,56,1.23046875E-5,61,60,75,753,3773,578,1673,1414,1453,450,313,Tag0,unknown
1500020196307,0,52,1.142578125E-5,61,60,75,753,3773,578,1673,1414,1453,450,313,Tag0,unknown
1500020196307,0,48,1.0546875E-5,61,60,75,753,3773,578,1673,1414,1453,450,313,Tag0,unknown
1500020196307,0,42,9.228515625000002E-6,61,60,75,753,3773,578,1673,1414,1453,450,313,Tag0,unknown
1500020196307,0,42,9.228515625000002E-6,61,60,75,753,3773,578,1673,1414,1453,450,313,Tag0,unknown
1500020196308,0,59,1.29638671875E-5,61,60,75,753,3773,578,1673,1414,1453,450,313,Tag0,unknown
1500020196308,0,87,1.91162109375E-5,61,60,75,753,3773,578,1673,1414,1453,450,313,Tag0,unknown
1500020196308,0,98,2.1533203125E-5,61,60,75,753,3773,578,1673,1414,1453,450,313,Tag0,unknown
1500020196308,0,82,1.8017578124999998E-5,61,60,75,753,3773,578,1673,1414,1453,450,313,Tag0,unknown
1500020196309,0,57,1.2524414062500001E-5,61,60,75,753,3773,578,1673,1414,1453,450,313,Tag0,unknown
1500020196309,0,43,9.448242187500001E-6,61,60,75,753,3773,578,1673,1414,1453,450,313,Tag0,unknown
1500020196309,0,49,1.07666015625E-5,61,60,75,753,3773,578,1673,1414,1453,450,313,Tag0,unknown
1500020196355,0,65,1.42822265625E-5,61,60,75,753,3773,578,1673,1414,1453,450,313,Tag0,unknown
1500020196366,0,71,1.56005859375E-5,61,60,75,753,3773,578,1673,1414,1453,450,313,Tag0,unknown
1500020196366,0,54,1.1865234375000001E-5,61,60,75,753,3773,578,1673,1414,1453,450,313,Tag0,unknown
1500020196367,0,34,7.4707031250000005E-6,61,60,75,753,3773,578,1673,1414,1453,450,313,Tag0,unknown
1500020196367,0,35,7.6904296875E-6,61,60,75,753,3773,578,1673,1414,1453,450,313,Tag0,unknown
1500020196368,0,55,1.20849609375E-5,61,60,75,753,3773,578,1673,1414,1453,450,313,Tag0,unknown
1500020196368,0,60,1.318359375E-5,61,60,75,753,3773,578,1673,1414,1453,450,313,Tag0,unknown
1500020196369,0,41,9.008789062499999E-6,61,60,75,753,3773,578,1673,1414,1453,450,313,Tag0,unknown
1500020196369,0,24,5.2734375E-6,61,60,75,753,3773,578,1673,1414,1453,450,313,Tag0,unknown
1500020196370,0,27,5.9326171875000005E-6,61,60,75,753,3773,578,1673,1414,1453,450,313,Tag0,unknown
1500020196370,0,51,1.1206054687499999E-5,61,60,75,753,3773,578,1673,1414,1453,450,313,Tag0,unknown
1500020196371,0,67,1.4721679687500002E-5,61,60,75,753,3773,578,1673,1414,1453,450,313,Tag0,unknown
1500020196371,0,56,1.23046875E-5,61,60,75,753,3773,578,1673,1414,1453,450,313,Tag0,unknown
1500020196372,0,42,9.228515625000002E-6,61,60,75,753,3773,578,1673,1414,1453,450,313,Tag0,unknown
1500020196372,0,54,1.1865234375000001E-5,61,60,75,753,3773,578,1673,1414,1453,450,313,Tag0,unknown
1500020196372,0,70,1.5380859375E-5,61,60,75,753,3773,578,1673,1414,1453,450,313,Tag0,unknown
1500020196372,0,64,1.40625E-5,61,60,75,753,3773,578,1673,1414,1453,450,313,Tag0,unknown
1500020196373,0,43,9.448242187500001E-6,61,60,75,753,3773,578,1673,1414,1453,450,313,Tag0,unknown
1500020196373,0,35,7.6904296875E-6,61,60,75,753,3773,578,1673,1414,1453,450,313,Tag0,unknown
1500020196374,0,36,7.91015625E-6,61,60,75,753,3773,578,1673,1414,1453,450,313,Tag0,unknown
1500020196374,0,54,1.1865234375000001E-5,61,60,75,753,3773,578,1673,1414,1453,450,313,Tag0,unknown
1500020196374,0,82,1.8017578124999998E-5,61,60,75,753,3773,578,1673,1414,1453,450,313,Tag0,unknown
1500020196375,0,76,1.669921875E-5,61,60,75,753,3773,578,1673,1414,1453,450,313,Tag0,unknown
1500020196375,0,42,9.228515625000002E-6,61,60,75,753,3773,578,1673,1414,1453,450,313,Tag0,unknown
1500020196375,0,25,5.4931640625E-6,61,60,75,753,3773,578,1673,1414,1453,450,313,Tag0,unknown
1500020196375,0,43,9.448242187500001E-6,61,60,75,753,3773,578,1673,1414,1453,450,313,Tag0,unknown
1500020196376,0,76,1.669921875E-5,61,60,75,753,3773,578,1673,1414,1453,450,313,Tag0,unknown
1500020196376,0,89,1.95556640625E-5,61,60,75,753,3773,578,1673,1414,1453,450,313,Tag0,unknown
1500020196376,0,85,1.86767578125E-5,61,60,75,753,3773,578,1673,1414,1453,450,313,Tag0,unknown
1500020196377,0,54,1.1865234375000001E-5,61,60,75,753,3773,578,1673,1414,1453,450,313,Tag0,unknown
1500020196377,0,7,1.5380859375E-6,61,60,75,753,3773,578,1673,1414,1453,450,313,Tag0,unknown
1500020196377,0,-283,-6.218261718750001E-5,61,60,75,753,3773,578,1673,1414,1453,450,313,Tag0,unknown
1500020196378,0,-308,-6.767578125E-5,61,60,75,753,3773,578,1673,1414,1453,450,313,Tag0,unknown
1500020196378,0,-299,-6.56982421875E-5,61,60,75,753,3773,578,1673,1414,1453,450,313,Tag0,unknown
1500020196378,0,11,2.4169921875E-6,61,60,75,753,3773,578,1673,1414,1453,450,313,Tag0,unknown
1500020196379,0,85,1.86767578125E-5,61,60,75,753,3773,578,1673,1414,1453,450,313,Tag0,unknown
1500020196379,0,-128,-2.8125E-5,61,60,75,753,3773,578,1673,1414,1453,450,313,Tag0,unknown
1500020196380,0,-125,-2.74658203125E-5,61,60,75,753,3773,578,1673,1414,1453,450,313,Tag0,unknown
1500020196380,0,-125,-2.74658203125E-5,61,60,75,753,3773,578,1673,1414,1453,450,313,Tag0,unknown
1500020196381,0,-107,-2.35107421875E-5,61,60,75,753,3773,578,1673,1414,1453,450,313,Tag0,unknown
1500020196418,0,-71,-1.56005859375E-5,61,60,75,753,3773,578,1673,1414,1453,450,313,Tag0,unknown
1500020196433,0,-24,-5.2734375E-6,61,60,75,753,3773,578,1673,1414,1453,450,313,Tag0,unknown
1500020196433,0,281,6.17431640625E-5,61,60,75,753,3773,578,1673,1414,1453,450,313,Tag0,unknown
1500020196434,0,299,6.56982421875E-5,61,60,75,753,3773,578,1673,1414,1453,450,313,Tag0,unknown
1500020196435,0,279,6.13037109375E-5,61,60,75,753,3773,578,1673,1414,1453,450,313,Tag0,unknown
1500020196435,0,256,5.625E-5,61,60,75,753,3773,578,1673,1414,1453,450,313,Tag0,unknown
1500020196435,0,256,5.625E-5,61,60,75,753,3773,578,1673,1414,1453,450,313,Tag0,unknown
1500020196436,0,277,6.0864257812500005E-5,61,60,75,753,3773,578,1673,1414,1453,450,313,Tag0,unknown
1500020196436,0,274,6.0205078124999997E-5,61,60,75,753,3773,578,1673,1414,1453,450,313,Tag0,unknown
1500020196437,0,-12,-2.63671875E-6,61,60,75,753,3773,578,1673,1414,1453,450,313,Tag0,unknown
1500020196437,0,-16,-3.515625E-6,61,60,75,753,3773,578,1673,1414,1453,450,313,Tag0,unknown
1500020196438,0,284,6.240234375E-5,61,60,75,753,3773,578,1673,1414,1453,450,313,Tag0,unknown
1500020196439,0,338,7.426757812499999E-5,61,60,75,753,3773,578,1673,1414,1453,450,313,Tag0,unknown
1500020196439,0,315,6.92138671875E-5,61,60,75,753,3773,578,1673,1414,1453,450,313,Tag0,unknown
1500020196439,0,-20,-4.39453125E-6,61,60,75,753,3773,578,1673,1414,1453,450,313,Tag0,unknown
1500020196439,0,-75,-1.64794921875E-5,61,60,75,753,3773,578,1673,1414,1453,450,313,Tag0,unknown
1500020196440,0,-76,-1.669921875E-5,61,60,75,753,3773,578,1673,1414,1453,450,313,Tag0,unknown
1500020196440,0,-48,-1.0546875E-5,61,60,75,753,3773,578,1673,1414,1453,450,313,Tag0,unknown
1500020196440,0,-45,-9.8876953125E-6,61,60,75,753,3773,578,1673,1414,1453,450,313,Tag0,unknown
1500020196441,0,-68,-1.4941406250000001E-5,61,60,75,753,3773,578,1673,1414,1453,450,313,Tag0,unknown
1500020196441,0,-90,-1.9775390625E-5,61,60,75,753,3773,578,1673,1414,1453,450,313,Tag0,unknown
1500020196442,0,-94,-2.0654296875000002E-5,61,60,75,753,3773,578,1673,1414,1453,450,313,Tag0,unknown
1500020196442,0,-91,-1.99951171875E-5,61,60,75,753,3773,578,1673,1414,1453,450,313,Tag0,unknown
1500020196442,0,-105,-2.30712890625E-5,61,60,75,753,3773,578,1673,1414,1453,450,313,Tag0,unknown
1500020196442,0,121,2.6586914062500003E-5,61,60,75,753,3773,578,1673,1414,1453,450,313,Tag0,unknown
1500020196443,0,102,2.2412109374999998E-5,61,60,75,753,3773,578,1673,1414,1453,450,313,Tag0,unknown
1500020196443,0,97,2.13134765625E-5,61,60,75,753,3773,578,1673,1414,1453,450,313,Tag0,unknown
1500020196443,0,97,2.13134765625E-5,61,60,75,753,3773,578,1673,1414,1453,450,313,Tag0,unknown
1500020196443,0,91,1.99951171875E-5,61,60,75,753,3773,578,1673,1414,1453,450,313,Tag0,unknown
1500020196444,0,67,1.4721679687500002E-5,61,60,75,753,3773,578,1673,1414,1453,450,313,Tag0,unknown
1500020196479,0,49,1.07666015625E-5,61,60,75,753,3773,578,1673,1414,1453,450,313,Tag0,unknown
1500020196500,0,51,1.1206054687499999E-5,61,60,75,753,3773,578,1673,1414,1453,450,313,Tag0,unknown
1500020196501,0,69,1.51611328125E-5,61,60,75,753,3773,578,1673,1414,1453,450,313,Tag0,unknown
1500020196503,0,70,1.5380859375E-5,61,60,75,753,3773,578,1673,1414,1453,450,313,Tag0,unknown
1500020196504,0,32,7.03125E-6,61,60,75,753,3773,578,1673,1414,1453,450,313,Tag0,unknown
1500020196505,0,-265,-5.82275390625E-5,61,60,75,753,3773,578,1673,1414,1453,450,313,Tag0,unknown
1500020196505,0,-282,-6.1962890625E-5,61,60,75,753,3773,578,1673,1414,1453,450,313,Tag0,unknown
1500020196505,0,-280,-6.15234375E-5,61,60,75,753,3773,578,1673,1414,1453,450,313,Tag0,unknown
1500020196506,0,-275,-6.04248046875E-5,61,60,75,753,3773,578,1673,1414,1453,450,313,Tag0,unknown
1500020196506,0,-274,-6.0205078124999997E-5,61,60,75,753,3773,578,1673,1414,1453,450,313,Tag0,unknown
1500020196506,0,-279,-6.13037109375E-5,61,60,75,753,3773,578,1673,1414,1453,450,313,Tag0,unknown
1500020196507,0,-277,-6.0864257812500005E-5,61,60,75,753,3773,578,1673,1414,1453,450,313,Tag0,unknown
1500020196507,0,1,2.197265625E-7,61,60,75,753,3773,578,1673,1414,1453,450,313,Tag0,unknown
1500020196508,0,22,4.833984375E-6,61,60,75,753,3773,578,1673,1414,1453,450,313,Tag0,unknown
1500020196509,0,16,3.515625E-6,61,60,75,753,3773,578,1673,1414,1453,450,313,Tag0,unknown
1500020196509,0,-257,-5.64697265625E-5,61,60,75,753,3773,578,1673,1414,1453,450,313,Tag0,unknown
1500020196509,0,3,6.591796875E-7,61,60,75,753,3773,578,1673,1414,1453,450,313,Tag0,unknown
1500020196510,0,33,7.2509765625E-6,61,60,75,753,3773,578,1673,1414,1453,450,313,Tag0,unknown
1500020196510,0,53,1.1645507812500002E-5,61,60,75,753,3773,578,1673,1414,1453,450,313,Tag0,unknown
1500020196510,0,36,7.91015625E-6,61,60,75,753,3773,578,1673,1414,1453,450,313,Tag0,unknown
1500020196510,0,-259,-5.69091796875E-5,61,60,75,753,3773,578,1673,1414,1453,450,313,Tag0,unknown
1500020196510,0,-280,-6.15234375E-5,61,60,75,753,3773,578,1673,1414,1453,450,313,Tag0,unknown
1500020196511,0,-261,-5.73486328125E-5,61,60,75,753,3773,578,1673,1414,1453,450,313,Tag0,unknown
1500020196512,0,24,5.2734375E-6,61,60,75,753,3773,578,1673,1414,1453,450,313,Tag0,unknown
1500020196512,0,22,4.833984375E-6,61,60,75,753,3773,578,1673,1414,1453,450,313,Tag0,unknown
1500020196512,0,4,8.7890625E-7,61,60,75,753,3773,578,1673,1414,1453,450,313,Tag0,unknown
1500020196512,0,4,8.7890625E-7,61,60,75,753,3773,578,1673,1414,1453,450,313,Tag0,unknown
1500020196513,0,22,4.833984375E-6,61,60,75,753,3773,578,1673,1414,1453,450,313,Tag0,unknown
1500020196513,0,33,7.2509765625E-6,61,60,75,753,3773,578,1673,1414,1453,450,313,Tag0,unknown
1500020196513,0,32,7.03125E-6,61,60,75,753,3773,578,1673,1414,1453,450,313,Tag0,unknown
1500020196544,0,13,2.8564453125E-6,61,60,75,753,3773,578,1673,1414,1453,450,313,Tag0,unknown
1500020196551,0,12,2.63671875E-6,61,60,75,753,3773,578,1673,1414,1453,450,313,Tag0,unknown
1500020196551,0,26,5.712890625E-6,61,60,75,753,3773,578,1673,1414,1453,450,313,Tag0,unknown
1500020196552,0,50,1.0986328125E-5,61,60,75,753,3773,578,1673,1414,1453,450,313,Tag0,unknown
1500020196552,0,61,1.34033203125E-5,61,60,75,753,3773,578,1673,1414,1453,450,313,Tag0,unknown
1500020196553,0,43,9.448242187500001E-6,61,60,75,753,3773,578,1673,1414,1453,450,313,Tag0,unknown
1500020196554,0,33,7.2509765625E-6,61,60,75,753,3773,578,1673,1414,1453,450,313,Tag0,unknown
1500020196554,0,53,1.1645507812500002E-5,61,60,75,753,3773,578,1673,1414,1453,450,313,Tag0,unknown
1500020196555,0,83,1.82373046875E-5,61,60,75,753,3773,578,1673,1414,1453,450,313,Tag0,unknown
1500020196555,0,90,1.9775390625E-5,61,60,75,753,3773,578,1673,1414,1453,450,313,Tag0,unknown
1500020196556,0,76,1.669921875E-5,61,60,75,753,3773,578,1673,1414,1453,450,313,Tag0,unknown
1500020196556,0,58,1.2744140625E-5,61,60,75,753,3773,578,1673,1414,1453,450,313,Tag0,unknown
1500020196557,0,53,1.1645507812500002E-5,61,60,75,753,3773,578,1673,1414,1453,450,313,Tag0,unknown
1500020196557,0,68,1.4941406250000001E-5,61,60,75,753,3773,578,1673,1414,1453,450,313,Tag0,unknown
1500020196557,0,84,1.8457031250000004E-5,61,60,75,753,3773,578,1673,1414,1453,450,313,Tag0,unknown
1500020196558,0,77,1.69189453125E-5,61,60,75,753,3773,578,1673,1414,1453,450,313,Tag0,unknown
1500020196558,0,66,1.4501953125E-5,61,60,75,753,3773,578,1673,1414,1453,450,313,Tag0,unknown
1500020196558,0,70,1.5380859375E-5,61,60,75,753,3773,578,1673,1414,1453,450,313,Tag0,unknown
1500020196558,0,87,1.91162109375E-5,61,60,75,753,3773,578,1673,1414,1453,450,313,Tag0,unknown
1500020196559,0,87,1.91162109375E-5,61,60,75,753,3773,578,1673,1414,1453,450,313,Tag0,unknown
1500020196559,0,55,1.20849609375E-5,61,60,75,753,3773,578,1673,1414,1453,450,313,Tag0,unknown
1500020196560,0,26,5.712890625E-6,61,60,75,753,3773,578,1673,1414,1453,450,313,Tag0,unknown
1500020196560,0,27,5.9326171875000005E-6,61,60,75,753,3773,578,1673,1414,1453,450,313,Tag0,unknown
1500020196560,0,58,1.2744140625E-5,61,60,75,753,3773,578,1673,1414,1453,450,313,Tag0,unknown
1500020196560,0,84,1.8457031250000004E-5,61,60,75,753,3773,578,1673,1414,1453,450,313,Tag0,unknown
1500020196560,0,73,1.6040039062500002E-5,61,60,75,753,3773,578,1673,1414,1453,450,313,Tag0,unknown
1500020196561,0,58,1.2744140625E-5,61,60,75,753,3773,578,1673,1414,1453,450,313,Tag0,unknown
1500020196561,0,67,1.4721679687500002E-5,61,60,75,753,3773,578,1673,1414,1453,450,313,Tag0,unknown
1500020196562,0,85,1.86767578125E-5,61,60,75,753,3773,578,1673,1414,1453,450,313,Tag0,unknown
1500020196562,0,96,2.109375E-5,61,60,75,753,3773,578,1673,1414,1453,450,313,Tag0,unknown
1500020196610,0,82,1.8017578124999998E-5,61,60,75,753,3773,578,1673,1414,1453,450,313,Tag0,unknown
1500020196620,0,54,1.1865234375000001E-5,61,60,75,753,3773,578,1673,1414,1453,450,313,Tag0,unknown
1500020196620,0,25,5.4931640625E-6,61,60,75,753,3773,578,1673,1414,1453,450,313,Tag0,unknown
1500020196621,0,16,3.515625E-6,61,60,75,753,3773,578,1673,1414,1453,450,313,Tag0,unknown
1500020196622,0,35,7.6904296875E-6,61,60,75,753,3773,578,1673,1414,1453,450,313,Tag0,unknown
1500020196623,0,48,1.0546875E-5,61,60,75,753,3773,578,1673,1414,1453,450,313,Tag0,unknown
1500020196624,0,41,9.008789062499999E-6,61,60,75,753,3773,578,1673,1414,1453,450,313,Tag0,unknown
1500020196624,0,43,9.448242187500001E-6,61,60,75,753,3773,578,1673,1414,1453,450,313,Tag0,unknown
1500020196625,0,57,1.2524414062500001E-5,61,60,75,753,3773,578,1673,1414,1453,450,313,Tag0,unknown
1500020196626,0,60,1.318359375E-5,61,60,75,753,3773,578,1673,1414,1453,450,313,Tag0,unknown
1500020196627,0,54,1.1865234375000001E-5,61,60,75,753,3773,578,1673,1414,1453,450,313,Tag0,unknown
1500020196627,0,51,1.1206054687499999E-5,61,60,75,753,3773,578,1673,1414,1453,450,313,Tag0,unknown
1500020196628,0,52,1.142578125E-5,61,60,75,753,3773,578,1673,1414,1453,450,313,Tag0,unknown
1500020196629,0,54,1.1865234375000001E-5,61,60,75,753,3773,578,1673,1414,1453,450,313,Tag0,unknown
1500020196629,0,71,1.56005859375E-5,61,60,75,753,3773,578,1673,1414,1453,450,313,Tag0,unknown
1500020196630,0,86,1.8896484375000003E-5,61,60,75,753,3773,578,1673,1414,1453,450,313,Tag0,unknown
1500020196630,0,76,1.669921875E-5,61,60,75,753,3773,578,1673,1414,1453,450,313,Tag0,unknown
1500020196631,0,59,1.29638671875E-5,61,60,75,753,3773,578,1673,1414,1453,450,313,Tag0,unknown
1500020196633,0,51,1.1206054687499999E-5,61,60,75,753,3773,578,1673,1414,1453,450,313,Tag0,unknown
1500020196634,0,50,1.0986328125E-5,61,60,75,753,3773,578,1673,1414,1453,450,313,Tag0,unknown
1500020196634,0,43,9.448242187500001E-6,61,60,75,753,3773,578,1673,1414,1453,450,313,Tag0,unknown
1500020196635,0,19,4.1748046875E-6,61,60,75,753,3773,578,1673,1414,1453,450,313,Tag0,unknown
1500020196636,0,-258,-5.6689453125000004E-5,61,60,75,753,3773,578,1673,1414,1453,450,313,Tag0,unknown
1500020196636,0,6,1.318359375E-6,61,60,75,753,3773,578,1673,1414,1453,450,313,Tag0,unknown
1500020196637,0,35,7.6904296875E-6,61,60,75,753,3773,578,1673,1414,1453,450,313,Tag0,unknown
1500020196637,0,48,1.0546875E-5,61,60,75,753,3773,578,1673,1414,1453,450,313,Tag0,unknown
1500020196637,0,33,7.2509765625E-6,61,60,75,753,3773,578,1673,1414,1453,450,313,Tag0,unknown
1500020196637,0,6,1.318359375E-6,61,60,75,753,3773,578,1673,1414,1453,450,313,Tag0,unknown
1500020196639,0,-265,-5.82275390625E-5,61,60,75,753,3773,578,1673,1414,1453,450,313,Tag0,unknown
1500020196639,0,-265,-5.82275390625E-5,61,60,75,753,3773,578,1673,1414,1453,450,313,Tag0,unknown
1500020196640,0,-258,-5.6689453125000004E-5,61,60,75,753,3773,578,1673,1414,1453,450,313,Tag0,unknown
1500020196645,0,4,8.7890625E-7,61,60,75,753,3773,578,1673,1414,1453,450,313,Tag0,unknown
1500020196646,0,0,0.0,61,60,75,753,3773,578,1673,1414,1453,450,313,Tag0,unknown
1500020196646,0,-262,-5.7568359375E-5,61,60,75,753,3773,578,1673,1414,1453,450,313,Tag0,unknown
1500020196647,0,-259,-5.69091796875E-5,61,60,75,753,3773,578,1673,1414,1453,450,313,Tag0,unknown
1500020196648,0,8,1.7578125E-6,61,60,75,753,3773,578,1673,1414,1453,450,313,Tag0,unknown
1500020196650,0,8,1.7578125E-6,61,60,75,753,3773,578,1673,1414,1453,450,313,Tag0,unknown
1500020196652,0,4,8.7890625E-7,61,60,75,753,3773,578,1673,1414,1453,450,313,Tag0,unknown
1500020196654,0,12,2.63671875E-6,61,60,75,753,3773,578,1673,1414,1453,450,313,Tag0,unknown
1500020196654,0,24,5.2734375E-6,61,60,75,753,3773,578,1673,1414,1453,450,313,Tag0,unknown
1500020196676,0,20,4.39453125E-6,61,60,75,753,3773,578,1673,1414,1453,450,313,Tag0,unknown
1500020196686,0,-258,-5.6689453125000004E-5,61,60,75,753,3773,578,1673,1414,1453,450,313,Tag0,unknown
1500020196687,0,-279,-6.13037109375E-5,61,60,75,753,3773,578,1673,1414,1453,450,313,Tag0,unknown
1500020196687,0,-266,-5.8447265625E-5,61,60,75,753,3773,578,1673,1414,1453,450,313,Tag0,unknown
1500020196688,0,12,2.63671875E-6,61,60,75,753,3773,578,1673,1414,1453,450,313,Tag0,unknown
1500020196689,0,27,5.9326171875000005E-6,61,60,75,753,3773,578,1673,1414,1453,450,313,Tag0,unknown
1500020196689,0,22,4.833984375E-6,61,60,75,753,3773,578,1673,1414,1453,450,313,Tag0,unknown
1500020196690,0,-260,-5.712890625E-5,61,60,75,753,3773,578,1673,1414,1453,450,313,Tag0,unknown
1500020196691,0,-278,-6.108398437500001E-5,61,60,75,753,3773,578,1673,1414,1453,450,313,Tag0,unknown
1500020196692,0,-262,-5.7568359375E-5,61,60,75,753,3773,578,1673,1414,1453,450,313,Tag0,unknown
1500020196692,0,23,5.0537109375E-6,61,60,75,753,3773,578,1673,1414,1453,450,313,Tag0,unknown
1500020196692,0,37,8.1298828125E-6,61,60,75,753,3773,578,1673,1414,1453,450,313,Tag0,unknown
1500020196692,0,33,7.2509765625E-6,61,60,75,753,3773,578,1673,1414,1453,450,313,Tag0,unknown
1500020196693,0,24,5.2734375E-6,61,60,75,753,3773,578,1673,1414,1453,450,313,Tag0,unknown
1500020196693,0,28,6.15234375E-6,61,60,75,753,3773,578,1673,1414,1453,450,313,Tag0,unknown
1500020196693,0,45,9.8876953125E-6,61,60,75,753,3773,578,1673,1414,1453,450,313,Tag0,unknown
1500020196694,0,53,1.1645507812500002E-5,61,60,75,753,3773,578,1673,1414,1453,450,313,Tag0,unknown
1500020196694,0,38,8.349609375E-6,61,60,75,753,3773,578,1673,1414,1453,450,313,Tag0,unknown
1500020196695,0,22,4.833984375E-6,61,60,75,753,3773,578,1673,1414,1453,450,313,Tag0,unknown
1500020196695,0,26,5.712890625E-6,61,60,75,753,3773,578,1673,1414,1453,450,313,Tag0,unknown
1500020196695,0,38,8.349609375E-6,61,60,75,753,3773,578,1673,1414,1453,450,313,Tag0,unknown
1500020196695,0,34,7.4707031250000005E-6,61,60,75,753,3773,578,1673,1414,1453,450,313,Tag0,unknown
1500020196696,0,7,1.5380859375E-6,61,60,75,753,3773,578,1673,1414,1453,450,313,Tag0,unknown
1500020196696,0,-277,-6.0864257812500005E-5,61,60,75,753,3773,578,1673,1414,1453,450,313,Tag0,unknown
1500020196696,0,-284,-6.240234375E-5,61,60,75,753,3773,578,1673,1414,1453,450,313,Tag0,unknown
1500020196697,0,-273,-5.998535156250001E-5,61,60,75,753,3773,578,1673,1414,1453,450,313,Tag0,unknown
1500020196697,0,-263,-5.7788085937500005E-5,61,60,75,753,3773,578,1673,1414,1453,450,313,Tag0,unknown
1500020196697,0,-273,-5.998535156250001E-5,61,60,75,753,3773,578,1673,1414,1453,450,313,Tag0,unknown
1500020196697,0,-281,-6.17431640625E-5,61,60,75,753,3773,578,1673,1414,1453,450,313,Tag0,unknown
1500020196698,0,-266,-5.8447265625E-5,61,60,75,753,3773,578,1673,1414,1453,450,313,Tag0,unknown
1500020196741,0,26,5.712890625E-6,61,60,75,753,3773,578,1673,1414,1453,450,313,Tag0,unknown
1500020196753,0,58,1.2744140625E-5,61,60,75,753,3773,578,1673,1414,1453,450,313,Tag0,unknown
1500020196753,0,67,1.4721679687500002E-5,61,60,75,753,3773,578,1673,1414,1453,450,313,Tag0,unknown
1500020196754,0,64,1.40625E-5,61,60,75,753,3773,578,1673,1414,1453,450,313,Tag0,unknown
1500020196755,0,76,1.669921875E-5,61,60,75,753,3773,578,1673,1414,1453,450,313,Tag0,unknown
1500020196755,0,105,2.30712890625E-5,61,60,75,753,3773,578,1673,1414,1453,450,313,Tag0,unknown
1500020196756,0,120,2.63671875E-5,61,60,75,753,3773,578,1673,1414,1453,450,313,Tag0,unknown
1500020196756,0,105,2.30712890625E-5,61,60,75,753,3773,578,1673,1414,1453,450,313,Tag0,unknown
1500020196756,0,75,1.64794921875E-5,61,60,75,753,3773,578,1673,1414,1453,450,313,Tag0,unknown
1500020196757,0,60,1.318359375E-5,61,60,75,753,3773,578,1673,1414,1453,450,313,Tag0,unknown
1500020196757,0,68,1.4941406250000001E-5,61,60,75,753,3773,578,1673,1414,1453,450,313,Tag0,unknown
1500020196758,0,87,1.91162109375E-5,61,60,75,753,3773,578,1673,1414,1453,450,313,Tag0,unknown
1500020196759,0,91,1.99951171875E-5,61,60,75,753,3773,578,1673,1414,1453,450,313,Tag0,unknown
1500020196759,0,74,1.6259765625E-5,61,60,75,753,3773,578,1673,1414,1453,450,313,Tag0,unknown
1500020196759,0,55,1.20849609375E-5,61,60,75,753,3773,578,1673,1414,1453,450,313,Tag0,unknown
1500020196759,0,55,1.20849609375E-5,61,60,75,753,3773,578,1673,1414,1453,450,313,Tag0,unknown
1500020196759,0,80,1.7578125E-5,61,60,75,753,3773,578,1673,1414,1453,450,313,Tag0,unknown
1500020196760,0,96,2.109375E-5,61,60,75,753,3773,578,1673,1414,1453,450,313,Tag0,unknown
1500020196760,0,82,1.8017578124999998E-5,61,60,75,753,3773,578,1673,1414,1453,450,313,Tag0,unknown
1500020196760,0,70,1.5380859375E-5,61,60,75,753,3773,578,1673,1414,1453,450,313,Tag0,unknown
1500020196761,0,70,1.5380859375E-5,61,60,75,753,3773,578,1673,1414,1453,450,313,Tag0,unknown
1500020196761,0,72,1.58203125E-5,61,60,75,753,3773,578,1673,1414,1453,450,313,Tag0,unknown
1500020196762,0,82,1.8017578124999998E-5,61,60,75,753,3773,578,1673,1414,1453,450,313,Tag0,unknown
1500020196762,0,88,1.93359375E-5,61,60,75,753,3773,578,1673,1414,1453,450,313,Tag0,unknown
1500020196763,0,85,1.86767578125E-5,61,60,75,753,3773,578,1673,1414,1453,450,313,Tag0,unknown
1500020196763,0,84,1.8457031250000004E-5,61,60,75,753,3773,578,1673,1414,1453,450,313,Tag0,unknown
1500020196763,0,83,1.82373046875E-5,61,60,75,753,3773,578,1673,1414,1453,450,313,Tag0,unknown
1500020196764,0,87,1.91162109375E-5,61,60,75,753,3773,578,1673,1414,1453,450,313,Tag0,unknown
1500020196764,0,80,1.7578125E-5,61,60,75,753,3773,578,1673,1414,1453,450,313,Tag0,unknown
1500020196764,0,64,1.40625E-5,61,60,75,753,3773,578,1673,1414,1453,450,313,Tag0,unknown
1500020196765,0,58,1.2744140625E-5,61,60,75,753,3773,578,1673,1414,1453,450,313,Tag0,unknown
1500020196765,0,67,1.4721679687500002E-5,61,60,75,753,3773,578,1673,1414,1453,450,313,Tag0,unknown
1500020196765,0,70,1.5380859375E-5,61,60,75,753,3773,578,1673,1414,1453,450,313,Tag0,unknown
1500020196766,0,64,1.40625E-5,61,60,75,753,3773,578,1673,1414,1453,450,313,Tag0,unknown
1500020196766,0,42,9.228515625000002E-6,61,60,75,753,3773,578,1673,1414,1453,450,313,Tag0,unknown
1500020196767,0,22,4.833984375E-6,61,60,75,753,3773,578,1673,1414,1453,450,313,Tag0,unknown
1500020196768,0,25,5.4931640625E-6,61,60,75,753,3773,578,1673,1414,1453,450,313,Tag0,unknown
1500020196768,0,43,9.448242187500001E-6,61,60,75,753,3773,578,1673,1414,1453,450,313,Tag0,unknown
1500020196769,0,39,8.5693359375E-6,61,60,75,753,3773,578,1673,1414,1453,450,313,Tag0,unknown
1500020196769,0,26,5.712890625E-6,61,60,75,753,3773,578,1673,1414,1453,450,313,Tag0,unknown
1500020196810,0,9,1.9775390625E-6,61,60,75,753,3773,578,1673,1414,1453,450,313,Tag0,unknown
1500020196822,0,-266,-5.8447265625E-5,61,60,75,753,3773,578,1673,1414,1453,450,313,Tag0,unknown
1500020196823,0,-283,-6.218261718750001E-5,61,60,75,753,3773,578,1673,1414,1453,450,313,Tag0,unknown
1500020196823,0,-284,-6.240234375E-5,61,60,75,753,3773,578,1673,1414,1453,450,313,Tag0,unknown
1500020196824,0,-267,-5.86669921875E-5,61,60,75,753,3773,578,1673,1414,1453,450,313,Tag0,unknown
1500020196825,0,7,1.5380859375E-6,61,60,75,753,3773,578,1673,1414,1453,450,313,Tag0,unknown
1500020196825,0,10,2.197265625E-6,61,60,75,753,3773,578,1673,1414,1453,450,313,Tag0,unknown
1500020196826,0,2,4.39453125E-7,61,60,75,753,3773,578,1673,1414,1453,450,313,Tag0,unknown
1500020196826,0,-261,-5.73486328125E-5,61,60,75,753,3773,578,1673,1414,1453,450,313,Tag0,unknown
1500020196827,0,-273,-5.998535156250001E-5,61,60,75,753,3773,578,1673,1414,1453,450,313,Tag0,unknown
1500020196828,0,-269,-5.9106445312499996E-5,61,60,75,753,3773,578,1673,1414,1453,450,313,Tag0,unknown
1500020196829,0,-258,-5.6689453125000004E-5,61,60,75,753,3773,578,1673,1414,1453,450,313,Tag0,unknown
1500020196829,0,12,2.63671875E-6,61,60,75,753,3773,578,1673,1414,1453,450,313,Tag0,unknown
1500020196829,0,20,4.39453125E-6,61,60,75,753,3773,578,1673,1414,1453,450,313,Tag0,unknown
1500020196830,0,10,2.197265625E-6,61,60,75,753,3773,578,1673,1414,1453,450,313,Tag0,unknown
1500020196830,0,-263,-5.7788085937500005E-5,61,60,75,753,3773,578,1673,1414,1453,450,313,Tag0,unknown
1500020196830,0,-277,-6.0864257812500005E-5,61,60,75,753,3773,578,1673,1414,1453,450,313,Tag0,unknown
1500020196830,0,-276,-6.064453125E-5,61,60,75,753,3773,578,1673,1414,1453,450,313,Tag0,unknown
1500020196831,0,-274,-6.0205078124999997E-5,61,60,75,753,3773,578,1673,1414,1453,450,313,Tag0,unknown
1500020196831,0,-270,-5.9326171875E-5,61,60,75,753,3773,578,1673,1414,1453,450,313,Tag0,unknown
1500020196832,0,-258,-5.6689453125000004E-5,61,60,75,753,3773,578,1673,1414,1453,450,313,Tag0,unknown
1500020196832,0,29,6.3720703125E-6,61,60,75,753,3773,578,1673,1414,1453,450,313,Tag0,unknown
1500020196833,0,43,9.448242187500001E-6,61,60,75,753,3773,578,1673,1414,1453,450,313,Tag0,unknown
1500020196833,0,28,6.15234375E-6,61,60,75,753,3773,578,1673,1414,1453,450,313,Tag0,unknown
1500020196833,0,5,1.0986328125E-6,61,60,75,753,3773,578,1673,1414,1453,450,313,Tag0,unknown
1500020196833,0,0,0.0,61,60,75,753,3773,578,1673,1414,1453,450,313,Tag0,unknown
1500020196834,0,12,2.63671875E-6,61,60,75,753,3773,578,1673,1414,1453,450,313,Tag0,unknown
1500020196835,0,41,9.008789062499999E-6,61,60,75,753,3773,578,1673,1414,1453,450,313,Tag0,unknown
1500020196839,0,65,1.42822265625E-5,48,57,75,16749081,16764391,4959,24208,10488,9492,10055,3044,Tag0,unknown
1500020196840,0,67,1.4721679687500002E-5,48,57,75,16749081,16764391,4959,24208,10488,9492,10055,3044,Tag0,unknown
1500020196840,0,55,1.20849609375E-5,48,57,75,16749081,16764391,4959,24208,10488,9492,10055,3044,Tag0,unknown
1500020196841,0,54,1.1865234375000001E-5,48,57,75,16749081,16764391,4959,24208,10488,9492,10055,3044,Tag0,unknown
1500020196842,0,65,1.42822265625E-5,48,57,75,16749081,16764391,4959,24208,10488,9492,10055,3044,Tag0,unknown
1500020196842,0,66,1.4501953125E-5,48,57,75,16749081,16764391,4959,24208,10488,9492,10055,3044,Tag0,unknown
1500020196843,0,50,1.0986328125E-5,48,57,75,16749081,16764391,4959,24208,10488,9492,10055,3044,Tag0,unknown
1500020196843,0,33,7.2509765625E-6,48,57,75,16749081,16764391,4959,24208,10488,9492,10055,3044,Tag0,unknown
1500020196880,0,26,5.712890625E-6,48,57,75,16749081,16764391,4959,24208,10488,9492,10055,3044,Tag0,unknown
1500020196888,0,39,8.5693359375E-6,48,57,75,16749081,16764391,4959,24208,10488,9492,10055,3044,Tag0,unknown
1500020196888,0,76,1.669921875E-5,48,57,75,16749081,16764391,4959,24208,10488,9492,10055,3044,Tag0,unknown
1500020196889,0,108,2.3730468750000002E-5,48,57,75,16749081,16764391,4959,24208,10488,9492,10055,3044,Tag0,unknown
1500020196889,0,108,2.3730468750000002E-5,48,57,75,16749081,16764391,4959,24208,10488,9492,10055,3044,Tag0,unknown
1500020196890,0,98,2.1533203125E-5,48,57,75,16749081,16764391,4959,24208,10488,9492,10055,3044,Tag0,unknown
1500020196890,0,87,1.91162109375E-5,48,57,75,16749081,16764391,4959,24208,10488,9492,10055,3044,Tag0,unknown
1500020196890,0,84,1.8457031250000004E-5,48,57,75,16749081,16764391,4959,24208,10488,9492,10055,3044,Tag0,unknown
1500020196891,0,84,1.8457031250000004E-5,48,57,75,16749081,16764391,4959,24208,10488,9492,10055,3044,Tag0,unknown
1500020196891,0,87,1.91162109375E-5,48,57,75,16749081,16764391,4959,24208,10488,9492,10055,3044,Tag0,unknown
1500020196892,0,87,1.91162109375E-5,48,57,75,16749081,16764391,4959,24208,10488,9492,10055,3044,Tag0,unknown
1500020196892,0,85,1.86767578125E-5,48,57,75,16749081,16764391,4959,24208,10488,9492,10055,3044,Tag0,unknown
1500020196893,0,85,1.86767578125E-5,48,57,75,16749081,16764391,4959,24208,10488,9492,10055,3044,Tag0,unknown
1500020196893,0,75,1.64794921875E-5,48,57,75,16749081,16764391,4959,24208,10488,9492,10055,3044,Tag0,unknown
1500020196894,0,53,1.1645507812500002E-5,48,57,75,16749081,16764391,4959,24208,10488,9492,10055,3044,Tag0,unknown
1500020196894,0,37,8.1298828125E-6,48,57,75,16749081,16764391,4959,24208,10488,9492,10055,3044,Tag0,unknown
1500020196894,0,38,8.349609375E-6,48,57,75,16749081,16764391,4959,24208,10488,9492,10055,3044,Tag0,unknown
1500020196895,0,52,1.142578125E-5,48,57,75,16749081,16764391,4959,24208,10488,9492,10055,3044,Tag0,unknown
1500020196895,0,51,1.1206054687499999E-5,48,57,75,16749081,16764391,4959,24208,10488,9492,10055,3044,Tag0,unknown
1500020196895,0,26,5.712890625E-6,48,57,75,16749081,16764391,4959,24208,10488,9492,10055,3044,Tag0,unknown
1500020196895,0,0,0.0,48,57,75,16749081,16764391,4959,24208,10488,9492,10055,3044,Tag0,unknown
1500020196896,0,1,2.197265625E-7,48,57,75,16749081,16764391,4959,24208,10488,9492,10055,3044,Tag0,unknown
1500020196896,0,21,4.614257812500001E-6,48,57,75,16749081,16764391,4959,24208,10488,9492,10055,3044,Tag0,unknown
1500020196896,0,48,1.0546875E-5,48,57,75,16749081,16764391,4959,24208,10488,9492,10055,3044,Tag0,unknown
1500020196896,0,57,1.2524414062500001E-5,48,57,75,16749081,16764391,4959,24208,10488,9492,10055,3044,Tag0,unknown
1500020196897,0,39,8.5693359375E-6,48,57,75,16749081,16764391,4959,24208,10488,9492,10055,3044,Tag0,unknown
1500020196897,0,25,5.4931640625E-6,48,57,75,16749081,16764391,4959,24208,10488,9492,10055,3044,Tag0,unknown
1500020196897,0,36,7.91015625E-6,48,57,75,16749081,16764391,4959,24208,10488,9492,10055,3044,Tag0,unknown
1500020196897,0,51,1.1206054687499999E-5,48,57,75,16749081,16764391,4959,24208,10488,9492,10055,3044,Tag0,unknown
1500020196897,0,58,1.2744140625E-5,48,57,75,16749081,16764391,4959,24208,10488,9492,10055,3044,Tag0,unknown
1500020196946,0,57,1.2524414062500001E-5,48,57,75,16749081,16764391,4959,24208,10488,9492,10055,3044,Tag0,unknown
1500020196957,0,56,1.23046875E-5,48,57,75,16749081,16764391,4959,24208,10488,9492,10055,3044,Tag0,unknown
1500020196958,0,65,1.42822265625E-5,48,57,75,16749081,16764391,4959,24208,10488,9492,10055,3044,Tag0,unknown
1500020196958,0,80,1.7578125E-5,48,57,75,16749081,16764391,4959,24208,10488,9492,10055,3044,Tag0,unknown
1500020196959,0,92,2.021484375E-5,48,57,75,16749081,16764391,4959,24208,10488,9492,10055,3044,Tag0,unknown
1500020196960,0,97,2.13134765625E-5,48,57,75,16749081,16764391,4959,24208,10488,9492,10055,3044,Tag0,unknown
1500020196960,0,89,1.95556640625E-5,48,57,75,16749081,16764391,4959,24208,10488,9492,10055,3044,Tag0,unknown
1500020196964,0,92,2.021484375E-5,48,57,75,16749081,16764391,4959,24208,10488,9492,10055,3044,Tag0,unknown
1500020196964,0,97,2.13134765625E-5,48,57,75,16749081,16764391,4959,24208,10488,9492,10055,3044,Tag0,unknown
1500020196965,0,84,1.8457031250000004E-5,48,57,75,16749081,16764391,4959,24208,10488,9492,10055,3044,Tag0,unknown
1500020196966,0,68,1.4941406250000001E-5,48,57,75,16749081,16764391,4959,24208,10488,9492,10055,3044,Tag0,unknown
1500020196966,0,71,1.56005859375E-5,48,57,75,16749081,16764391,4959,24208,10488,9492,10055,3044,Tag0,unknown
1500020196967,0,89,1.95556640625E-5,48,57,75,16749081,16764391,4959,24208,10488,9492,10055,3044,Tag0,unknown
1500020196968,0,102,2.2412109374999998E-5,48,57,75,16749081,16764391,4959,24208,10488,9492,10055,3044,Tag0,unknown
1500020196969,0,112,2.4609375E-5,48,57,75,16749081,16764391,4959,24208,10488,9492,10055,3044,Tag0,unknown
1500020196970,0,108,2.3730468750000002E-5,48,57,75,16749081,16764391,4959,24208,10488,9492,10055,3044,Tag0,unknown
1500020196970,0,92,2.021484375E-5,48,57,75,16749081,16764391,4959,24208,10488,9492,10055,3044,Tag0,unknown
1500020196974,0,80,1.7578125E-5,48,57,75,16749081,16764391,4959,24208,10488,9492,10055,3044,Tag0,unknown
1500020196974,0,71,1.56005859375E-5,48,57,75,16749081,16764391,4959,24208,10488,9492,10055,3044,Tag0,unknown
1500020196974,0,58,1.2744140625E-5,48,57,75,16749081,16764391,4959,24208,10488,9492,10055,3044,Tag0,unknown
1500020196975,0,43,9.448242187500001E-6,48,57,75,16749081,16764391,4959,24208,10488,9492,10055,3044,Tag0,unknown
1500020196975,0,40,8.7890625E-6,48,57,75,16749081,16764391,4959,24208,10488,9492,10055,3044,Tag0,unknown
1500020196975,0,58,1.2744140625E-5,48,57,75,16749081,16764391,4959,24208,10488,9492,10055,3044,Tag0,unknown
1500020196975,0,86,1.8896484375000003E-5,48,57,75,16749081,16764391,4959,24208,10488,9492,10055,3044,Tag0,unknown
1500020196976,0,115,2.52685546875E-5,48,57,75,16749081,16764391,4959,24208,10488,9492,10055,3044,Tag0,unknown
1500020196976,0,120,2.63671875E-5,48,57,75,16749081,16764391,4959,24208,10488,9492,10055,3044,Tag0,unknown
1500020196976,0,114,2.5048828125000003E-5,48,57,75,16749081,16764391,4959,24208,10488,9492,10055,3044,Tag0,unknown
1500020196977,0,120,2.63671875E-5,48,57,75,16749081,16764391,4959,24208,10488,9492,10055,3044,Tag0,unknown
1500020196977,0,-123,-2.70263671875E-5,48,57,75,16749081,16764391,4959,24208,10488,9492,10055,3044,Tag0,unknown
1500020196977,0,-128,-2.8125E-5,48,57,75,16749081,16764391,4959,24208,10488,9492,10055,3044,Tag0,unknown
1500020196981,0,102,2.2412109374999998E-5,48,57,75,16749081,16764391,4959,24208,10488,9492,10055,3044,Tag0,unknown
1500020196982,0,80,1.7578125E-5,48,57,75,16749081,16764391,4959,24208,10488,9492,10055,3044,Tag0,unknown
1500020196982,0,66,1.4501953125E-5,48,57,75,16749081,16764391,4959,24208,10488,9492,10055,3044,Tag0,unknown
1500020196983,0,67,1.4721679687500002E-5,48,57,75,16749081,16764391,4959,24208,10488,9492,10055,3044,Tag0,unknown
1500020196984,0,67,1.4721679687500002E-5,48,57,75,16749081,16764391,4959,24208,10488,9492,10055,3044,Tag0,unknown
1500020196984,0,67,1.4721679687500002E-5,48,57,75,16749081,16764391,4959,24208,10488,9492,10055,3044,Tag0,unknown
1500020196985,0,53,1.1645507812500002E-5,48,57,75,16749081,16764391,4959,24208,10488,9492,10055,3044,Tag0,unknown
1500020196986,0,42,9.228515625000002E-6,48,57,75,16749081,16764391,4959,24208,10488,9492,10055,3044,Tag0,unknown
1500020196987,0,55,1.20849609375E-5,48,57,75,16749081,16764391,4959,24208,10488,9492,10055,3044,Tag0,unknown
1500020196988,0,64,1.40625E-5,48,57,75,16749081,16764391,4959,24208,10488,9492,10055,3044,Tag0,unknown
1500020197010,0,53,1.1645507812500002E-5,48,57,75,16749081,16764391,4959,24208,10488,9492,10055,3044,Tag0,unknown
1500020197023,0,41,9.008789062499999E-6,48,57,75,16749081,16764391,4959,24208,10488,9492,10055,3044,Tag0,unknown
1500020197024,0,37,8.1298828125E-6,48,57,75,16749081,16764391,4959,24208,10488,9492,10055,3044,Tag0,unknown
1500020197024,0,40,8.7890625E-6,48,57,75,16749081,16764391,4959,24208,10488,9492,10055,3044,Tag0,unknown
1500020197025,0,44,9.66796875E-6,48,57,75,16749081,16764391,4959,24208,10488,9492,10055,3044,Tag0,unknown
1500020197025,0,48,1.0546875E-5,48,57,75,16749081,16764391,4959,24208,10488,9492,10055,3044,Tag0,unknown
1500020197026,0,43,9.448242187500001E-6,48,57,75,16749081,16764391,4959,24208,10488,9492,10055,3044,Tag0,unknown
1500020197026,0,54,1.1865234375000001E-5,48,57,75,16749081,16764391,4959,24208,10488,9492,10055,3044,Tag0,unknown
1500020197027,0,80,1.7578125E-5,48,57,75,16749081,16764391,4959,24208,10488,9492,10055,3044,Tag0,unknown
1500020197027,0,98,2.1533203125E-5,48,57,75,16749081,16764391,4959,24208,10488,9492,10055,3044,Tag0,unknown
1500020197027,0,100,2.197265625E-5,48,57,75,16749081,16764391,4959,24208,10488,9492,10055,3044,Tag0,unknown
1500020197028,0,89,1.95556640625E-5,48,57,75,16749081,16764391,4959,24208,10488,9492,10055,3044,Tag0,unknown
1500020197028,0,82,1.8017578124999998E-5,48,57,75,16749081,16764391,4959,24208,10488,9492,10055,3044,Tag0,unknown
1500020197028,0,89,1.95556640625E-5,48,57,75,16749081,16764391,4959,24208,10488,9492,10055,3044,Tag0,unknown
1500020197028,0,105,2.30712890625E-5,48,57,75,16749081,16764391,4959,24208,10488,9492,10055,3044,Tag0,unknown
1500020197029,0,112,2.4609375E-5,48,57,75,16749081,16764391,4959,24208,10488,9492,10055,3044,Tag0,unknown
1500020197029,0,97,2.13134765625E-5,48,57,75,16749081,16764391,4959,24208,10488,9492,10055,3044,Tag0,unknown
1500020197029,0,72,1.58203125E-5,48,57,75,16749081,16764391,4959,24208,10488,9492,10055,3044,Tag0,unknown
1500020197029,0,65,1.42822265625E-5,48,57,75,16749081,16764391,4959,24208,10488,9492,10055,3044,Tag0,unknown
1500020197030,0,70,1.5380859375E-5,48,57,75,16749081,16764391,4959,24208,10488,9492,10055,3044,Tag0,unknown
1500020197030,0,73,1.6040039062500002E-5,48,57,75,16749081,16764391,4959,24208,10488,9492,10055,3044,Tag0,unknown
1500020197030,0,81,1.77978515625E-5,48,57,75,16749081,16764391,4959,24208,10488,9492,10055,3044,Tag0,unknown
1500020197030,0,89,1.95556640625E-5,48,57,75,16749081,16764391,4959,24208,10488,9492,10055,3044,Tag0,unknown
1500020197031,0,93,2.04345703125E-5,48,57,75,16749081,16764391,4959,24208,10488,9492,10055,3044,Tag0,unknown
1500020197031,0,97,2.13134765625E-5,48,57,75,16749081,16764391,4959,24208,10488,9492,10055,3044,Tag0,unknown
1500020197032,0,105,2.30712890625E-5,48,57,75,16749081,16764391,4959,24208,10488,9492,10055,3044,Tag0,unknown
1500020197032,0,117,2.5708007812499998E-5,48,57,75,16749081,16764391,4959,24208,10488,9492,10055,3044,Tag0,unknown
1500020197032,0,114,2.5048828125000003E-5,48,57,75,16749081,16764391,4959,24208,10488,9492,10055,3044,Tag0,unknown
1500020197032,0,93,2.04345703125E-5,48,57,75,16749081,16764391,4959,24208,10488,9492,10055,3044,Tag0,unknown
1500020197032,0,76,1.669921875E-5,48,57,75,16749081,16764391,4959,24208,10488,9492,10055,3044,Tag0,unknown
1500020197075,0,71,1.56005859375E-5,48,57,75,16749081,16764391,4959,24208,10488,9492,10055,3044,Tag0,unknown
1500020197089,0,69,1.51611328125E-5,48,57,75,16749081,16764391,4959,24208,10488,9492,10055,3044,Tag0,unknown
1500020197090,0,65,1.42822265625E-5,48,57,75,16749081,16764391,4959,24208,10488,9492,10055,3044,Tag0,unknown
1500020197090,0,76,1.669921875E-5,48,57,75,16749081,16764391,4959,24208,10488,9492,10055,3044,Tag0,unknown
1500020197091,0,97,2.13134765625E-5,48,57,75,16749081,16764391,4959,24208,10488,9492,10055,3044,Tag0,unknown
1500020197092,0,109,2.39501953125E-5,48,57,75,16749081,16764391,4959,24208,10488,9492,10055,3044,Tag0,unknown
1500020197092,0,112,2.4609375E-5,48,57,75,16749081,16764391,4959,24208,10488,9492,10055,3044,Tag0,unknown
1500020197093,0,105,2.30712890625E-5,48,57,75,16749081,16764391,4959,24208,10488,9492,10055,3044,Tag0,unknown
1500020197093,0,114,2.5048828125000003E-5,48,57,75,16749081,16764391,4959,24208,10488,9492,10055,3044,Tag0,unknown
1500020197094,0,118,2.5927734375E-5,48,57,75,16749081,16764391,4959,24208,10488,9492,10055,3044,Tag0,unknown
1500020197094,0,116,2.548828125E-5,48,57,75,16749081,16764391,4959,24208,10488,9492,10055,3044,Tag0,unknown
1500020197095,0,116,2.548828125E-5,48,57,75,16749081,16764391,4959,24208,10488,9492,10055,3044,Tag0,unknown
1500020197095,0,108,2.3730468750000002E-5,48,57,75,16749081,16764391,4959,24208,10488,9492,10055,3044,Tag0,unknown
1500020197096,0,96,2.109375E-5,48,57,75,16749081,16764391,4959,24208,10488,9492,10055,3044,Tag0,unknown
1500020197096,0,89,1.95556640625E-5,48,57,75,16749081,16764391,4959,24208,10488,9492,10055,3044,Tag0,unknown
1500020197096,0,98,2.1533203125E-5,48,57,75,16749081,16764391,4959,24208,10488,9492,10055,3044,Tag0,unknown
1500020197096,0,105,2.30712890625E-5,48,57,75,16749081,16764391,4959,24208,10488,9492,10055,3044,Tag0,unknown
1500020197097,0,105,2.30712890625E-5,48,57,75,16749081,16764391,4959,24208,10488,9492,10055,3044,Tag0,unknown
1500020197097,0,99,2.1752929687500003E-5,48,57,75,16749081,16764391,4959,24208,10488,9492,10055,3044,Tag0,unknown
1500020197098,0,89,1.95556640625E-5,48,57,75,16749081,16764391,4959,24208,10488,9492,10055,3044,Tag0,unknown
1500020197098,0,86,1.8896484375000003E-5,48,57,75,16749081,16764391,4959,24208,10488,9492,10055,3044,Tag0,unknown
1500020197099,0,81,1.77978515625E-5,48,57,75,16749081,16764391,4959,24208,10488,9492,10055,3044,Tag0,unknown
1500020197100,0,68,1.4941406250000001E-5,48,57,75,16749081,16764391,4959,24208,10488,9492,10055,3044,Tag0,unknown
1500020197100,0,60,1.318359375E-5,48,57,75,16749081,16764391,4959,24208,10488,9492,10055,3044,Tag0,unknown
1500020197100,0,58,1.2744140625E-5,48,57,75,16749081,16764391,4959,24208,10488,9492,10055,3044,Tag0,unknown
1500020197100,0,67,1.4721679687500002E-5,48,57,75,16749081,16764391,4959,24208,10488,9492,10055,3044,Tag0,unknown
1500020197101,0,80,1.7578125E-5,48,57,75,16749081,16764391,4959,24208,10488,9492,10055,3044,Tag0,unknown
1500020197102,0,86,1.8896484375000003E-5,48,57,75,16749081,16764391,4959,24208,10488,9492,10055,3044,Tag0,unknown
1500020197102,0,92,2.021484375E-5,48,57,75,16749081,16764391,4959,24208,10488,9492,10055,3044,Tag0,unknown
1500020197103,0,106,2.3291015625000003E-5,48,57,75,16749081,16764391,4959,24208,10488,9492,10055,3044,Tag0,unknown
1500020197140,0,122,2.6806640625E-5,48,57,75,16749081,16764391,4959,24208,10488,9492,10055,3044,Tag0,unknown
1500020197162,0,-126,-2.7685546875E-5,48,57,75,16749081,16764391,4959,24208,10488,9492,10055,3044,Tag0,unknown
1500020197164,0,124,2.724609375E-5,48,57,75,16749081,16764391,4959,24208,10488,9492,10055,3044,Tag0,unknown
1500020197165,0,122,2.6806640625E-5,48,57,75,16749081,16764391,4959,24208,10488,9492,10055,3044,Tag0,unknown
1500020197165,0,118,2.5927734375E-5,48,57,75,16749081,16764391,4959,24208,10488,9492,10055,3044,Tag0,unknown
1500020197166,0,102,2.2412109374999998E-5,48,57,75,16749081,16764391,4959,24208,10488,9492,10055,3044,Tag0,unknown
1500020197167,0,103,2.26318359375E-5,48,57,75,16749081,16764391,4959,24208,10488,9492,10055,3044,Tag0,unknown
1500020197168,0,112,2.4609375E-5,48,57,75,16749081,16764391,4959,24208,10488,9492,10055,3044,Tag0,unknown
1500020197169,0,105,2.30712890625E-5,48,57,75,16749081,16764391,4959,24208,10488,9492,10055,3044,Tag0,unknown
1500020197169,0,91,1.99951171875E-5,48,57,75,16749081,16764391,4959,24208,10488,9492,10055,3044,Tag0,unknown
1500020197170,0,84,1.8457031250000004E-5,48,57,75,16749081,16764391,4959,24208,10488,9492,10055,3044,Tag0,unknown
1500020197170,0,80,1.7578125E-5,48,57,75,16749081,16764391,4959,24208,10488,9492,10055,3044,Tag0,unknown
1500020197171,0,81,1.77978515625E-5,48,57,75,16749081,16764391,4959,24208,10488,9492,10055,3044,Tag0,unknown
1500020197172,0,92,2.021484375E-5,48,57,75,16749081,16764391,4959,24208,10488,9492,10055,3044,Tag0,unknown
1500020197172,0,92,2.021484375E-5,48,57,75,16749081,16764391,4959,24208,10488,9492,10055,3044,Tag0,unknown
1500020197173,0,87,1.91162109375E-5,48,57,75,16749081,16764391,4959,24208,10488,9492,10055,3044,Tag0,unknown
1500020197174,0,83,1.82373046875E-5,48,57,75,16749081,16764391,4959,24208,10488,9492,10055,3044,Tag0,unknown
1500020197174,0,75,1.64794921875E-5,48,57,75,16749081,16764391,4959,24208,10488,9492,10055,3044,Tag0,unknown
1500020197175,0,72,1.58203125E-5,48,57,75,16749081,16764391,4959,24208,10488,9492,10055,3044,Tag0,unknown
1500020197176,0,72,1.58203125E-5,48,57,75,16749081,16764391,4959,24208,10488,9492,10055,3044,Tag0,unknown
1500020197176,0,80,1.7578125E-5,48,57,75,16749081,16764391,4959,24208,10488,9492,10055,3044,Tag0,unknown
1500020197177,0,85,1.86767578125E-5,48,57,75,16749081,16764391,4959,24208,10488,9492,10055,3044,Tag0,unknown
1500020197177,0,87,1.91162109375E-5,48,57,75,16749081,16764391,4959,24208,10488,9492,10055,3044,Tag0,unknown
1500020197178,0,83,1.82373046875E-5,48,57,75,16749081,16764391,4959,24208,10488,9492,10055,3044,Tag0,unknown
1500020197178,0,83,1.82373046875E-5,48,57,75,16749081,16764391,4959,24208,10488,9492,10055,3044,Tag0,unknown
1500020197179,0,91,1.99951171875E-5,48,57,75,16749081,16764391,4959,24208,10488,9492,10055,3044,Tag0,unknown
1500020197179,0,103,2.26318359375E-5,48,57,75,16749081,16764391,4959,24208,10488,9492,10055,3044,Tag0,unknown
1500020197180,0,109,2.39501953125E-5,48,57,75,16749081,16764391,4959,24208,10488,9492,10055,3044,Tag0,unknown
1500020197180,0,106,2.3291015625000003E-5,48,57,75,16749081,16764391,4959,24208,10488,9492,10055,3044,Tag0,unknown
1500020197181,0,104,2.28515625E-5,48,57,75,16749081,16764391,4959,24208,10488,9492,10055,3044,Tag0,unknown
1500020197182,0,102,2.2412109374999998E-5,48,57,75,16749081,16764391,4959,24208,10488,9492,10055,3044,Tag0,unknown
1500020197182,0,113,2.48291015625E-5,48,57,75,16749081,16764391,4959,24208,10488,9492,10055,3044,Tag0,unknown
1500020197183,0,120,2.63671875E-5,48,57,75,16749081,16764391,4959,24208,10488,9492,10055,3044,Tag0,unknown
1500020197183,0,108,2.3730468750000002E-5,48,57,75,16749081,16764391,4959,24208,10488,9492,10055,3044,Tag0,unknown
1500020197183,0,96,2.109375E-5,48,57,75,16749081,16764391,4959,24208,10488,9492,10055,3044,Tag0,unknown
1500020197184,0,89,1.95556640625E-5,48,57,75,16749081,16764391,4959,24208,10488,9492,10055,3044,Tag0,unknown
1500020197184,0,90,1.9775390625E-5,48,57,75,16749081,16764391,4959,24208,10488,9492,10055,3044,Tag0,unknown
1500020197184,0,97,2.13134765625E-5,48,57,75,16749081,16764391,4959,24208,10488,9492,10055,3044,Tag0,unknown
1500020197185,0,83,1.82373046875E-5,48,57,75,16749081,16764391,4959,24208,10488,9492,10055,3044,Tag0,unknown
1500020197185,0,50,1.0986328125E-5,48,57,75,16749081,16764391,4959,24208,10488,9492,10055,3044,Tag0,unknown
1500020197216,0,40,8.7890625E-6,48,57,75,16749081,16764391,4959,24208,10488,9492,10055,3044,Tag0,unknown
1500020197225,0,59,1.29638671875E-5,48,57,75,16749081,16764391,4959,24208,10488,9492,10055,3044,Tag0,unknown
1500020197225,0,72,1.58203125E-5,48,57,75,16749081,16764391,4959,24208,10488,9492,10055,3044,Tag0,unknown
1500020197226,0,73,1.6040039062500002E-5,48,57,75,16749081,16764391,4959,24208,10488,9492,10055,3044,Tag0,unknown
1500020197227,0,77,1.69189453125E-5,48,57,75,16749081,16764391,4959,24208,10488,9492,10055,3044,Tag0,unknown
1500020197227,0,81,1.77978515625E-5,48,57,75,16749081,16764391,4959,24208,10488,9492,10055,3044,Tag0,unknown
1500020197228,0,68,1.4941406250000001E-5,48,57,75,16749081,16764391,4959,24208,10488,9492,10055,3044,Tag0,unknown
1500020197228,0,50,1.0986328125E-5,48,57,75,16749081,16764391,4959,24208,10488,9492,10055,3044,Tag0,unknown
1500020197229,0,56,1.23046875E-5,48,57,75,16749081,16764391,4959,24208,10488,9492,10055,3044,Tag0,unknown
1500020197230,0,85,1.86767578125E-5,48,57,75,16749081,16764391,4959,24208,10488,9492,10055,3044,Tag0,unknown
1500020197231,0,108,2.3730468750000002E-5,48,57,75,16749081,16764391,4959,24208,10488,9492,10055,3044,Tag0,unknown
1500020197231,0,118,2.5927734375E-5,48,57,75,16749081,16764391,4959,24208,10488,9492,10055,3044,Tag0,unknown
1500020197232,0,100,2.197265625E-5,48,57,75,16749081,16764391,4959,24208,10488,9492,10055,3044,Tag0,unknown
1500020197232,0,65,1.42822265625E-5,48,57,75,16749081,16764391,4959,24208,10488,9492,10055,3044,Tag0,unknown
1500020197232,0,36,7.91015625E-6,48,57,75,16749081,16764391,4959,24208,10488,9492,10055,3044,Tag0,unknown
1500020197233,0,43,9.448242187500001E-6,48,57,75,16749081,16764391,4959,24208,10488,9492,10055,3044,Tag0,unknown
1500020197233,0,76,1.669921875E-5,48,57,75,16749081,16764391,4959,24208,10488,9492,10055,3044,Tag0,unknown
1500020197234,0,112,2.4609375E-5,48,57,75,16749081,16764391,4959,24208,10488,9492,10055,3044,Tag0,unknown
1500020197234,0,121,2.6586914062500003E-5,48,57,75,16749081,16764391,4959,24208,10488,9492,10055,3044,Tag0,unknown
1500020197235,0,107,2.35107421875E-5,48,57,75,16749081,16764391,4959,24208,10488,9492,10055,3044,Tag0,unknown
1500020197235,0,77,1.69189453125E-5,48,57,75,16749081,16764391,4959,24208,10488,9492,10055,3044,Tag0,unknown
1500020197235,0,64,1.40625E-5,48,57,75,16749081,16764391,4959,24208,10488,9492,10055,3044,Tag0,unknown
1500020197235,0,75,1.64794921875E-5,48,57,75,16749081,16764391,4959,24208,10488,9492,10055,3044,Tag0,unknown
1500020197236,0,88,1.93359375E-5,48,57,75,16749081,16764391,4959,24208,10488,9492,10055,3044,Tag0,unknown
1500020197236,0,91,1.99951171875E-5,48,57,75,16749081,16764391,4959,24208,10488,9492,10055,3044,Tag0,unknown
1500020197236,0,100,2.197265625E-5,48,57,75,16749081,16764391,4959,24208,10488,9492,10055,3044,Tag0,unknown
1500020197237,0,88,1.93359375E-5,48,57,75,16749081,16764391,4959,24208,10488,9492,10055,3044,Tag0,unknown
1500020197237,0,60,1.318359375E-5,48,57,75,16749081,16764391,4959,24208,10488,9492,10055,3044,Tag0,unknown
1500020197238,0,41,9.008789062499999E-6,48,57,75,16749081,16764391,4959,24208,10488,9492,10055,3044,Tag0,unknown
1500020197239,0,45,9.8876953125E-6,48,57,75,16749081,16764391,4959,24208,10488,9492,10055,3044,Tag0,unknown
1500020197280,0,52,1.142578125E-5,48,57,75,16749081,16764391,4959,24208,10488,9492,10055,3044,Tag0,unknown
1500020197291,0,56,1.23046875E-5,48,57,75,16749081,16764391,4959,24208,10488,9492,10055,3044,Tag0,unknown
1500020197292,0,68,1.4941406250000001E-5,48,57,75,16749081,16764391,4959,24208,10488,9492,10055,3044,Tag0,unknown
1500020197292,0,70,1.5380859375E-5,48,57,75,16749081,16764391,4959,24208,10488,9492,10055,3044,Tag0,unknown
1500020197293,0,57,1.2524414062500001E-5,48,57,75,16749081,16764391,4959,24208,10488,9492,10055,3044,Tag0,unknown
1500020197293,0,45,9.8876953125E-6,48,57,75,16749081,16764391,4959,24208,10488,9492,10055,3044,Tag0,unknown
1500020197294,0,35,7.6904296875E-6,48,57,75,16749081,16764391,4959,24208,10488,9492,10055,3044,Tag0,unknown
1500020197294,0,34,7.4707031250000005E-6,48,57,75,16749081,16764391,4959,24208,10488,9492,10055,3044,Tag0,unknown
1500020197295,0,42,9.228515625000002E-6,48,57,75,16749081,16764391,4959,24208,10488,9492,10055,3044,Tag0,unknown
1500020197295,0,43,9.448242187500001E-6,48,57,75,16749081,16764391,4959,24208,10488,9492,10055,3044,Tag0,unknown
1500020197296,0,28,6.15234375E-6,48,57,75,16749081,16764391,4959,24208,10488,9492,10055,3044,Tag0,unknown
1500020197297,0,18,3.955078125E-6,48,57,75,16749081,16764391,4959,24208,10488,9492,10055,3044,Tag0,unknown
1500020197297,0,33,7.2509765625E-6,48,57,75,16749081,16764391,4959,24208,10488,9492,10055,3044,Tag0,unknown
1500020197298,0,60,1.318359375E-5,48,57,75,16749081,16764391,4959,24208,10488,9492,10055,3044,Tag0,unknown
1500020197298,0,70,1.5380859375E-5,48,57,75,16749081,16764391,4959,24208,10488,9492,10055,3044,Tag0,unknown
1500020197299,0,64,1.40625E-5,48,57,75,16749081,16764391,4959,24208,10488,9492,10055,3044,Tag0,unknown
1500020197299,0,61,1.34033203125E-5,48,57,75,16749081,16764391,4959,24208,10488,9492,10055,3044,Tag0,unknown
1500020197300,0,68,1.4941406250000001E-5,48,57,75,16749081,16764391,4959,24208,10488,9492,10055,3044,Tag0,unknown
1500020197300,0,76,1.669921875E-5,48,57,75,16749081,16764391,4959,24208,10488,9492,10055,3044,Tag0,unknown
1500020197300,0,85,1.86767578125E-5,48,57,75,16749081,16764391,4959,24208,10488,9492,10055,3044,Tag0,unknown
1500020197301,0,72,1.58203125E-5,48,57,75,16749081,16764391,4959,24208,10488,9492,10055,3044,Tag0,unknown
1500020197301,0,56,1.23046875E-5,48,57,75,16749081,16764391,4959,24208,10488,9492,10055,3044,Tag0,unknown
1500020197302,0,69,1.51611328125E-5,48,57,75,16749081,16764391,4959,24208,10488,9492,10055,3044,Tag0,unknown
1500020197302,0,99,2.1752929687500003E-5,48,57,75,16749081,16764391,4959,24208,10488,9492,10055,3044,Tag0,unknown
1500020197303,0,109,2.39501953125E-5,48,57,75,16749081,16764391,4959,24208,10488,9492,10055,3044,Tag0,unknown
1500020197303,0,92,2.021484375E-5,48,57,75,16749081,16764391,4959,24208,10488,9492,10055,3044,Tag0,unknown
1500020197303,0,73,1.6040039062500002E-5,48,57,75,16749081,16764391,4959,24208,10488,9492,10055,3044,Tag0,unknown
1500020197304,0,81,1.77978515625E-5,48,57,75,16749081,16764391,4959,24208,10488,9492,10055,3044,Tag0,unknown
1500020197304,0,104,2.28515625E-5,48,57,75,16749081,16764391,4959,24208,10488,9492,10055,3044,Tag0,unknown
1500020197305,0,118,2.5927734375E-5,48,57,75,16749081,16764391,4959,24208,10488,9492,10055,3044,Tag0,unknown
1500020197306,0,116,2.548828125E-5,48,57,75,16749081,16764391,4959,24208,10488,9492,10055,3044,Tag0,unknown
1500020197307,0,98,2.1533203125E-5,48,57,75,16749081,16764391,4959,24208,10488,9492,10055,3044,Tag0,unknown
1500020197307,0,90,1.9775390625E-5,48,57,75,16749081,16764391,4959,24208,10488,9492,10055,3044,Tag0,unknown
1500020197308,0,97,2.13134765625E-5,48,57,75,16749081,16764391,4959,24208,10488,9492,10055,3044,Tag0,unknown
1500020197308,0,91,1.99951171875E-5,48,57,75,16749081,16764391,4959,24208,10488,9492,10055,3044,Tag0,unknown
1500020197309,0,80,1.7578125E-5,48,57,75,16749081,16764391,4959,24208,10488,9492,10055,3044,Tag0,unknown
1500020197309,0,66,1.4501953125E-5,48,57,75,16749081,16764391,4959,24208,10488,9492,10055,3044,Tag0,unknown
1500020197310,0,56,1.23046875E-5,48,57,75,16749081,16764391,4959,24208,10488,9492,10055,3044,Tag0,unknown
1500020197310,0,54,1.1865234375000001E-5,48,57,75,16749081,16764391,4959,24208,10488,9492,10055,3044,Tag0,unknown
1500020197311,0,71,1.56005859375E-5,48,57,75,16749081,16764391,4959,24208,10488,9492,10055,3044,Tag0,unknown
1500020197346,0,87,1.91162109375E-5,48,57,75,16749081,16764391,4959,24208,10488,9492,10055,3044,Tag0,unknown
1500020197363,0,90,1.9775390625E-5,48,57,75,16749081,16764391,4959,24208,10488,9492,10055,3044,Tag0,unknown
1500020197367,0,91,1.99951171875E-5,48,57,75,16749081,16764391,4959,24208,10488,9492,10055,3044,Tag0,unknown
1500020197368,0,91,1.99951171875E-5,48,57,75,16749081,16764391,4959,24208,10488,9492,10055,3044,Tag0,unknown
1500020197369,0,82,1.8017578124999998E-5,48,57,75,16749081,16764391,4959,24208,10488,9492,10055,3044,Tag0,unknown
1500020197375,0,68,1.4941406250000001E-5,48,57,75,16749081,16764391,4959,24208,10488,9492,10055,3044,Tag0,unknown
1500020197376,0,52,1.142578125E-5,48,57,75,16749081,16764391,4959,24208,10488,9492,10055,3044,Tag0,unknown
1500020197377,0,36,7.91015625E-6,48,57,75,16749081,16764391,4959,24208,10488,9492,10055,3044,Tag0,unknown
1500020197377,0,36,7.91015625E-6,48,57,75,16749081,16764391,4959,24208,10488,9492,10055,3044,Tag0,unknown
1500020197377,0,48,1.0546875E-5,48,57,75,16749081,16764391,4959,24208,10488,9492,10055,3044,Tag0,unknown
1500020197378,0,57,1.2524414062500001E-5,48,57,75,16749081,16764391,4959,24208,10488,9492,10055,3044,Tag0,unknown
1500020197378,0,52,1.142578125E-5,48,57,75,16749081,16764391,4959,24208,10488,9492,10055,3044,Tag0,unknown
1500020197379,0,43,9.448242187500001E-6,48,57,75,16749081,16764391,4959,24208,10488,9492,10055,3044,Tag0,unknown
1500020197379,0,38,8.349609375E-6,48,57,75,16749081,16764391,4959,24208,10488,9492,10055,3044,Tag0,unknown
1500020197379,0,42,9.228515625000002E-6,48,57,75,16749081,16764391,4959,24208,10488,9492,10055,3044,Tag0,unknown
1500020197380,0,49,1.07666015625E-5,48,57,75,16749081,16764391,4959,24208,10488,9492,10055,3044,Tag0,unknown
1500020197380,0,36,7.91015625E-6,48,57,75,16749081,16764391,4959,24208,10488,9492,10055,3044,Tag0,unknown
1500020197380,0,21,4.614257812500001E-6,48,57,75,16749081,16764391,4959,24208,10488,9492,10055,3044,Tag0,unknown
1500020197381,0,23,5.0537109375E-6,48,57,75,16749081,16764391,4959,24208,10488,9492,10055,3044,Tag0,unknown
1500020197382,0,42,9.228515625000002E-6,48,57,75,16749081,16764391,4959,24208,10488,9492,10055,3044,Tag0,unknown
1500020197382,0,55,1.20849609375E-5,48,57,75,16749081,16764391,4959,24208,10488,9492,10055,3044,Tag0,unknown
1500020197383,0,41,9.008789062499999E-6,48,57,75,16749081,16764391,4959,24208,10488,9492,10055,3044,Tag0,unknown
1500020197383,0,25,5.4931640625E-6,48,57,75,16749081,16764391,4959,24208,10488,9492,10055,3044,Tag0,unknown
1500020197384,0,40,8.7890625E-6,48,57,75,16749081,16764391,4959,24208,10488,9492,10055,3044,Tag0,unknown
1500020197384,0,58,1.2744140625E-5,48,57,75,16749081,16764391,4959,24208,10488,9492,10055,3044,Tag0,unknown
1500020197385,0,65,1.42822265625E-5,48,57,75,16749081,16764391,4959,24208,10488,9492,10055,3044,Tag0,unknown
1500020197386,0,54,1.1865234375000001E-5,48,57,75,16749081,16764391,4959,24208,10488,9492,10055,3044,Tag0,unknown
1500020197387,0,49,1.07666015625E-5,48,57,75,16749081,16764391,4959,24208,10488,9492,10055,3044,Tag0,unknown
1500020197387,0,51,1.1206054687499999E-5,48,57,75,16749081,16764391,4959,24208,10488,9492,10055,3044,Tag0,unknown
1500020197387,0,58,1.2744140625E-5,48,57,75,16749081,16764391,4959,24208,10488,9492,10055,3044,Tag0,unknown
1500020197413,0,80,1.7578125E-5,48,57,75,16749081,16764391,4959,24208,10488,9492,10055,3044,Tag0,unknown
1500020197427,0,88,1.93359375E-5,48,57,75,16749081,16764391,4959,24208,10488,9492,10055,3044,Tag0,unknown
1500020197428,0,73,1.6040039062500002E-5,48,57,75,16749081,16764391,4959,24208,10488,9492,10055,3044,Tag0,unknown
1500020197429,0,66,1.4501953125E-5,48,57,75,16749081,16764391,4959,24208,10488,9492,10055,3044,Tag0,unknown
1500020197430,0,67,1.4721679687500002E-5,48,57,75,16749081,16764391,4959,24208,10488,9492,10055,3044,Tag0,unknown
1500020197430,0,60,1.318359375E-5,48,57,75,16749081,16764391,4959,24208,10488,9492,10055,3044,Tag0,unknown
1500020197431,0,51,1.1206054687499999E-5,48,57,75,16749081,16764391,4959,24208,10488,9492,10055,3044,Tag0,unknown
1500020197432,0,44,9.66796875E-6,48,57,75,16749081,16764391,4959,24208,10488,9492,10055,3044,Tag0,unknown
1500020197432,0,41,9.008789062499999E-6,48,57,75,16749081,16764391,4959,24208,10488,9492,10055,3044,Tag0,unknown
1500020197433,0,44,9.66796875E-6,48,57,75,16749081,16764391,4959,24208,10488,9492,10055,3044,Tag0,unknown
1500020197434,0,54,1.1865234375000001E-5,48,57,75,16749081,16764391,4959,24208,10488,9492,10055,3044,Tag0,unknown
1500020197434,0,59,1.29638671875E-5,48,57,75,16749081,16764391,4959,24208,10488,9492,10055,3044,Tag0,unknown
1500020197435,0,48,1.0546875E-5,48,57,75,16749081,16764391,4959,24208,10488,9492,10055,3044,Tag0,unknown
1500020197435,0,33,7.2509765625E-6,48,57,75,16749081,16764391,4959,24208,10488,9492,10055,3044,Tag0,unknown
1500020197435,0,34,7.4707031250000005E-6,48,57,75,16749081,16764391,4959,24208,10488,9492,10055,3044,Tag0,unknown
1500020197435,0,33,7.2509765625E-6,48,57,75,16749081,16764391,4959,24208,10488,9492,10055,3044,Tag0,unknown
1500020197436,0,16,3.515625E-6,48,57,75,16749081,16764391,4959,24208,10488,9492,10055,3044,Tag0,unknown
1500020197436,0,-266,-5.8447265625E-5,48,57,75,16749081,16764391,4959,24208,10488,9492,10055,3044,Tag0,unknown
1500020197437,0,-275,-6.04248046875E-5,48,57,75,16749081,16764391,4959,24208,10488,9492,10055,3044,Tag0,unknown
1500020197437,0,9,1.9775390625E-6,48,57,75,16749081,16764391,4959,24208,10488,9492,10055,3044,Tag0,unknown
1500020197444,0,58,1.2744140625E-5,48,57,75,16749081,16764391,4959,24208,10488,9492,10055,3044,Tag0,unknown
1500020197445,0,86,1.8896484375000003E-5,48,57,75,16749081,16764391,4959,24208,10488,9492,10055,3044,Tag0,unknown
1500020197445,0,56,1.23046875E-5,48,57,75,16749081,16764391,4959,24208,10488,9492,10055,3044,Tag0,unknown
1500020197446,0,20,4.39453125E-6,48,57,75,16749081,16764391,4959,24208,10488,9492,10055,3044,Tag0,unknown
1500020197446,0,33,7.2509765625E-6,48,57,75,16749081,16764391,4959,24208,10488,9492,10055,3044,Tag0,unknown
1500020197447,0,84,1.8457031250000004E-5,48,57,75,16749081,16764391,4959,24208,10488,9492,10055,3044,Tag0,unknown
1500020197447,0,118,2.5927734375E-5,48,57,75,16749081,16764391,4959,24208,10488,9492,10055,3044,Tag0,unknown
1500020197448,0,101,2.2192382812500002E-5,48,57,75,16749081,16764391,4959,24208,10488,9492,10055,3044,Tag0,unknown
1500020197449,0,58,1.2744140625E-5,48,57,75,16749081,16764391,4959,24208,10488,9492,10055,3044,Tag0,unknown
1500020197449,0,42,9.228515625000002E-6,48,57,75,16749081,16764391,4959,24208,10488,9492,10055,3044,Tag0,unknown
1500020197480,0,56,1.23046875E-5,48,57,75,16749081,16764391,4959,24208,10488,9492,10055,3044,Tag0,unknown
1500020197495,0,69,1.51611328125E-5,48,57,75,16749081,16764391,4959,24208,10488,9492,10055,3044,Tag0,unknown
1500020197496,0,48,1.0546875E-5,48,57,75,16749081,16764391,4959,24208,10488,9492,10055,3044,Tag0,unknown
1500020197497,0,12,2.63671875E-6,48,57,75,16749081,16764391,4959,24208,10488,9492,10055,3044,Tag0,unknown
1500020197497,0,7,1.5380859375E-6,48,57,75,16749081,16764391,4959,24208,10488,9492,10055,3044,Tag0,unknown
1500020197498,0,36,7.91015625E-6,48,57,75,16749081,16764391,4959,24208,10488,9492,10055,3044,Tag0,unknown
1500020197498,0,81,1.77978515625E-5,48,57,75,16749081,16764391,4959,24208,10488,9492,10055,3044,Tag0,unknown
1500020197499,0,101,2.2192382812500002E-5,48,57,75,16749081,16764391,4959,24208,10488,9492,10055,3044,Tag0,unknown
1500020197500,0,89,1.95556640625E-5,48,57,75,16749081,16764391,4959,24208,10488,9492,10055,3044,Tag0,unknown
1500020197501,0,57,1.2524414062500001E-5,48,57,75,16749081,16764391,4959,24208,10488,9492,10055,3044,Tag0,unknown
1500020197502,0,16,3.515625E-6,48,57,75,16749081,16764391,4959,24208,10488,9492,10055,3044,Tag0,unknown
1500020197502,0,-260,-5.712890625E-5,48,57,75,16749081,16764391,4959,24208,10488,9492,10055,3044,Tag0,unknown
1500020197503,0,-262,-5.7568359375E-5,48,57,75,16749081,16764391,4959,24208,10488,9492,10055,3044,Tag0,unknown
1500020197504,0,-267,-5.86669921875E-5,48,57,75,16749081,16764391,4959,24208,10488,9492,10055,3044,Tag0,unknown
1500020197505,0,-278,-6.108398437500001E-5,48,57,75,16749081,16764391,4959,24208,10488,9492,10055,3044,Tag0,unknown
1500020197505,0,-284,-6.240234375E-5,48,57,75,16749081,16764391,4959,24208,10488,9492,10055,3044,Tag0,unknown
1500020197506,0,-274,-6.0205078124999997E-5,48,57,75,16749081,16764391,4959,24208,10488,9492,10055,3044,Tag0,unknown
1500020197506,0,2,4.39453125E-7,48,57,75,16749081,16764391,4959,24208,10488,9492,10055,3044,Tag0,unknown
1500020197507,0,19,4.1748046875E-6,48,57,75,16749081,16764391,4959,24208,10488,9492,10055,3044,Tag0,unknown
1500020197507,0,35,7.6904296875E-6,48,57,75,16749081,16764391,4959,24208,10488,9492,10055,3044,Tag0,unknown
1500020197508,0,55,1.20849609375E-5,48,57,75,16749081,16764391,4959,24208,10488,9492,10055,3044,Tag0,unknown
1500020197509,0,56,1.23046875E-5,48,57,75,16749081,16764391,4959,24208,10488,9492,10055,3044,Tag0,unknown
1500020197510,0,51,1.1206054687499999E-5,48,57,75,16749081,16764391,4959,24208,10488,9492,10055,3044,Tag0,unknown
1500020197510,0,51,1.1206054687499999E-5,48,57,75,16749081,16764391,4959,24208,10488,9492,10055,3044,Tag0,unknown
1500020197511,0,59,1.29638671875E-5,48,57,75,16749081,16764391,4959,24208,10488,9492,10055,3044,Tag0,unknown
1500020197511,0,81,1.77978515625E-5,48,57,75,16749081,16764391,4959,24208,10488,9492,10055,3044,Tag0,unknown
1500020197512,0,92,2.021484375E-5,48,57,75,16749081,16764391,4959,24208,10488,9492,10055,3044,Tag0,unknown
1500020197512,0,85,1.86767578125E-5,48,57,75,16749081,16764391,4959,24208,10488,9492,10055,3044,Tag0,unknown
1500020197512,0,73,1.6040039062500002E-5,48,57,75,16749081,16764391,4959,24208,10488,9492,10055,3044,Tag0,unknown
1500020197513,0,72,1.58203125E-5,48,57,75,16749081,16764391,4959,24208,10488,9492,10055,3044,Tag0,unknown
1500020197513,0,87,1.91162109375E-5,48,57,75,16749081,16764391,4959,24208,10488,9492,10055,3044,Tag0,unknown
1500020197514,0,102,2.2412109374999998E-5,48,57,75,16749081,16764391,4959,24208,10488,9492,10055,3044,Tag0,unknown
1500020197514,0,104,2.28515625E-5,48,57,75,16749081,16764391,4959,24208,10488,9492,10055,3044,Tag0,unknown
1500020197515,0,83,1.82373046875E-5,48,57,75,16749081,16764391,4959,24208,10488,9492,10055,3044,Tag0,unknown
1500020197516,0,70,1.5380859375E-5,48,57,75,16749081,16764391,4959,24208,10488,9492,10055,3044,Tag0,unknown
1500020197516,0,90,1.9775390625E-5,48,57,75,16749081,16764391,4959,24208,10488,9492,10055,3044,Tag0,unknown
1500020197517,0,117,2.5708007812499998E-5,48,57,75,16749081,16764391,4959,24208,10488,9492,10055,3044,Tag0,unknown
1500020197517,0,121,2.6586914062500003E-5,48,57,75,16749081,16764391,4959,24208,10488,9492,10055,3044,Tag0,unknown
1500020197517,0,107,2.35107421875E-5,48,57,75,16749081,16764391,4959,24208,10488,9492,10055,3044,Tag0,unknown
1500020197518,0,97,2.13134765625E-5,48,57,75,16749081,16764391,4959,24208,10488,9492,10055,3044,Tag0,unknown
1500020197543,0,86,1.8896484375000003E-5,48,57,75,16749081,16764391,4959,24208,10488,9492,10055,3044,Tag0,unknown
1500020197561,0,81,1.77978515625E-5,48,57,75,16749081,16764391,4959,24208,10488,9492,10055,3044,Tag0,unknown
1500020197562,0,77,1.69189453125E-5,48,57,75,16749081,16764391,4959,24208,10488,9492,10055,3044,Tag0,unknown
1500020197563,0,74,1.6259765625E-5,48,57,75,16749081,16764391,4959,24208,10488,9492,10055,3044,Tag0,unknown
1500020197563,0,69,1.51611328125E-5,48,57,75,16749081,16764391,4959,24208,10488,9492,10055,3044,Tag0,unknown
1500020197564,0,59,1.29638671875E-5,48,57,75,16749081,16764391,4959,24208,10488,9492,10055,3044,Tag0,unknown
1500020197565,0,52,1.142578125E-5,48,57,75,16749081,16764391,4959,24208,10488,9492,10055,3044,Tag0,unknown
1500020197566,0,43,9.448242187500001E-6,48,57,75,16749081,16764391,4959,24208,10488,9492,10055,3044,Tag0,unknown
1500020197567,0,33,7.2509765625E-6,48,57,75,16749081,16764391,4959,24208,10488,9492,10055,3044,Tag0,unknown
1500020197568,0,22,4.833984375E-6,48,57,75,16749081,16764391,4959,24208,10488,9492,10055,3044,Tag0,unknown
1500020197568,0,23,5.0537109375E-6,48,57,75,16749081,16764391,4959,24208,10488,9492,10055,3044,Tag0,unknown
1500020197569,0,39,8.5693359375E-6,48,57,75,16749081,16764391,4959,24208,10488,9492,10055,3044,Tag0,unknown
1500020197569,0,67,1.4721679687500002E-5,48,57,75,16749081,16764391,4959,24208,10488,9492,10055,3044,Tag0,unknown
1500020197569,0,90,1.9775390625E-5,48,57,75,16749081,16764391,4959,24208,10488,9492,10055,3044,Tag0,unknown
1500020197570,0,92,2.021484375E-5,48,57,75,16749081,16764391,4959,24208,10488,9492,10055,3044,Tag0,unknown
1500020197570,0,83,1.82373046875E-5,48,57,75,16749081,16764391,4959,24208,10488,9492,10055,3044,Tag0,unknown
1500020197570,0,82,1.8017578124999998E-5,48,57,75,16749081,16764391,4959,24208,10488,9492,10055,3044,Tag0,unknown
1500020197571,0,90,1.9775390625E-5,48,57,75,16749081,16764391,4959,24208,10488,9492,10055,3044,Tag0,unknown
1500020197572,0,100,2.197265625E-5,48,57,75,16749081,16764391,4959,24208,10488,9492,10055,3044,Tag0,unknown
1500020197572,0,100,2.197265625E-5,48,57,75,16749081,16764391,4959,24208,10488,9492,10055,3044,Tag0,unknown
1500020197572,0,90,1.9775390625E-5,48,57,75,16749081,16764391,4959,24208,10488,9492,10055,3044,Tag0,unknown
1500020197572,0,76,1.669921875E-5,48,57,75,16749081,16764391,4959,24208,10488,9492,10055,3044,Tag0,unknown
1500020197573,0,69,1.51611328125E-5,48,57,75,16749081,16764391,4959,24208,10488,9492,10055,3044,Tag0,unknown
1500020197573,0,73,1.6040039062500002E-5,48,57,75,16749081,16764391,4959,24208,10488,9492,10055,3044,Tag0,unknown
1500020197573,0,64,1.40625E-5,48,57,75,16749081,16764391,4959,24208,10488,9492,10055,3044,Tag0,unknown
1500020197574,0,45,9.8876953125E-6,48,57,75,16749081,16764391,4959,24208,10488,9492,10055,3044,Tag0,unknown
1500020197574,0,55,1.20849609375E-5,48,57,75,16749081,16764391,4959,24208,10488,9492,10055,3044,Tag0,unknown
1500020197575,0,82,1.8017578124999998E-5,48,57,75,16749081,16764391,4959,24208,10488,9492,10055,3044,Tag0,unknown
1500020197575,0,90,1.9775390625E-5,48,57,75,16749081,16764391,4959,24208,10488,9492,10055,3044,Tag0,unknown
1500020197576,0,72,1.58203125E-5,48,57,75,16749081,16764391,4959,24208,10488,9492,10055,3044,Tag0,unknown
1500020197607,0,56,1.23046875E-5,48,57,75,16749081,16764391,4959,24208,10488,9492,10055,3044,Tag0,unknown
1500020197628,0,67,1.4721679687500002E-5,48,57,75,16749081,16764391,4959,24208,10488,9492,10055,3044,Tag0,unknown
1500020197629,0,86,1.8896484375000003E-5,48,57,75,16749081,16764391,4959,24208,10488,9492,10055,3044,Tag0,unknown
1500020197629,0,96,2.109375E-5,48,57,75,16749081,16764391,4959,24208,10488,9492,10055,3044,Tag0,unknown
1500020197630,0,83,1.82373046875E-5,48,57,75,16749081,16764391,4959,24208,10488,9492,10055,3044,Tag0,unknown
1500020197630,0,58,1.2744140625E-5,48,57,75,16749081,16764391,4959,24208,10488,9492,10055,3044,Tag0,unknown
1500020197631,0,55,1.20849609375E-5,48,57,75,16749081,16764391,4959,24208,10488,9492,10055,3044,Tag0,unknown
1500020197631,0,66,1.4501953125E-5,48,57,75,16749081,16764391,4959,24208,10488,9492,10055,3044,Tag0,unknown
1500020197632,0,68,1.4941406250000001E-5,48,57,75,16749081,16764391,4959,24208,10488,9492,10055,3044,Tag0,unknown
1500020197632,0,54,1.1865234375000001E-5,48,57,75,16749081,16764391,4959,24208,10488,9492,10055,3044,Tag0,unknown
1500020197632,0,48,1.0546875E-5,48,57,75,16749081,16764391,4959,24208,10488,9492,10055,3044,Tag0,unknown
1500020197632,0,61,1.34033203125E-5,48,57,75,16749081,16764391,4959,24208,10488,9492,10055,3044,Tag0,unknown
1500020197633,0,84,1.8457031250000004E-5,48,57,75,16749081,16764391,4959,24208,10488,9492,10055,3044,Tag0,unknown
1500020197633,0,92,2.021484375E-5,48,57,75,16749081,16764391,4959,24208,10488,9492,10055,3044,Tag0,unknown
1500020197633,0,77,1.69189453125E-5,48,57,75,16749081,16764391,4959,24208,10488,9492,10055,3044,Tag0,unknown
1500020197633,0,55,1.20849609375E-5,48,57,75,16749081,16764391,4959,24208,10488,9492,10055,3044,Tag0,unknown
1500020197634,0,53,1.1645507812500002E-5,48,57,75,16749081,16764391,4959,24208,10488,9492,10055,3044,Tag0,unknown
1500020197634,0,60,1.318359375E-5,48,57,75,16749081,16764391,4959,24208,10488,9492,10055,3044,Tag0,unknown
1500020197635,0,56,1.23046875E-5,48,57,75,16749081,16764391,4959,24208,10488,9492,10055,3044,Tag0,unknown
1500020197636,0,39,8.5693359375E-6,48,57,75,16749081,16764391,4959,24208,10488,9492,10055,3044,Tag0,unknown
1500020197636,0,24,5.2734375E-6,48,57,75,16749081,16764391,4959,24208,10488,9492,10055,3044,Tag0,unknown
1500020197637,0,16,3.515625E-6,48,57,75,16749081,16764391,4959,24208,10488,9492,10055,3044,Tag0,unknown
1500020197637,0,24,5.2734375E-6,48,57,75,16749081,16764391,4959,24208,10488,9492,10055,3044,Tag0,unknown
1500020197637,0,35,7.6904296875E-6,48,57,75,16749081,16764391,4959,24208,10488,9492,10055,3044,Tag0,unknown
1500020197637,0,33,7.2509765625E-6,48,57,75,16749081,16764391,4959,24208,10488,9492,10055,3044,Tag0,unknown
1500020197638,0,27,5.9326171875000005E-6,48,57,75,16749081,16764391,4959,24208,10488,9492,10055,3044,Tag0,unknown
1500020197638,0,23,5.0537109375E-6,48,57,75,16749081,16764391,4959,24208,10488,9492,10055,3044,Tag0,unknown
1500020197638,0,39,8.5693359375E-6,48,57,75,16749081,16764391,4959,24208,10488,9492,10055,3044,Tag0,unknown
1500020197639,0,68,1.4941406250000001E-5,48,57,75,16749081,16764391,4959,24208,10488,9492,10055,3044,Tag0,unknown
1500020197639,0,84,1.8457031250000004E-5,48,57,75,16749081,16764391,4959,24208,10488,9492,10055,3044,Tag0,unknown
1500020197639,0,75,1.64794921875E-5,48,57,75,16749081,16764391,4959,24208,10488,9492,10055,3044,Tag0,unknown
1500020197639,0,73,1.6040039062500002E-5,48,57,75,16749081,16764391,4959,24208,10488,9492,10055,3044,Tag0,unknown
1500020197640,0,88,1.93359375E-5,48,57,75,16749081,16764391,4959,24208,10488,9492,10055,3044,Tag0,unknown
1500020197640,0,103,2.26318359375E-5,48,57,75,16749081,16764391,4959,24208,10488,9492,10055,3044,Tag0,unknown
1500020197640,0,101,2.2192382812500002E-5,48,57,75,16749081,16764391,4959,24208,10488,9492,10055,3044,Tag0,unknown
1500020197640,0,71,1.56005859375E-5,48,57,75,16749081,16764391,4959,24208,10488,9492,10055,3044,Tag0,unknown
1500020197640,0,36,7.91015625E-6,48,57,75,16749081,16764391,4959,24208,10488,9492,10055,3044,Tag0,unknown
1500020197641,0,34,7.4707031250000005E-6,48,57,75,16749081,16764391,4959,24208,10488,9492,10055,3044,Tag0,unknown
1500020197641,0,53,1.1645507812500002E-5,48,57,75,16749081,16764391,4959,24208,10488,9492,10055,3044,Tag0,unknown
1500020197642,0,70,1.5380859375E-5,48,57,75,16749081,16764391,4959,24208,10488,9492,10055,3044,Tag0,unknown
1500020197687,0,77,1.69189453125E-5,48,57,75,16749081,16764391,4959,24208,10488,9492,10055,3044,Tag0,unknown
1500020197695,0,70,1.5380859375E-5,48,57,75,16749081,16764391,4959,24208,10488,9492,10055,3044,Tag0,unknown
1500020197696,0,68,1.4941406250000001E-5,48,57,75,16749081,16764391,4959,24208,10488,9492,10055,3044,Tag0,unknown
1500020197696,0,75,1.64794921875E-5,48,57,75,16749081,16764391,4959,24208,10488,9492,10055,3044,Tag0,unknown
1500020197697,0,72,1.58203125E-5,48,57,75,16749081,16764391,4959,24208,10488,9492,10055,3044,Tag0,unknown
1500020197698,0,54,1.1865234375000001E-5,48,57,75,16749081,16764391,4959,24208,10488,9492,10055,3044,Tag0,unknown
1500020197698,0,44,9.66796875E-6,48,57,75,16749081,16764391,4959,24208,10488,9492,10055,3044,Tag0,unknown
1500020197698,0,64,1.40625E-5,48,57,75,16749081,16764391,4959,24208,10488,9492,10055,3044,Tag0,unknown
1500020197699,0,87,1.91162109375E-5,48,57,75,16749081,16764391,4959,24208,10488,9492,10055,3044,Tag0,unknown
1500020197702,0,106,2.3291015625000003E-5,48,57,75,16749081,16764391,4959,24208,10488,9492,10055,3044,Tag0,unknown
1500020197715,0,108,2.3730468750000002E-5,48,57,75,16749081,16764391,4959,24208,10488,9492,10055,3044,Tag0,unknown
1500020197716,0,92,2.021484375E-5,48,57,75,16749081,16764391,4959,24208,10488,9492,10055,3044,Tag0,unknown
1500020197717,0,80,1.7578125E-5,48,57,75,16749081,16764391,4959,24208,10488,9492,10055,3044,Tag0,unknown
1500020197717,0,87,1.91162109375E-5,48,57,75,16749081,16764391,4959,24208,10488,9492,10055,3044,Tag0,unknown
1500020197718,0,116,2.548828125E-5,48,57,75,16749081,16764391,4959,24208,10488,9492,10055,3044,Tag0,unknown
1500020197719,0,114,2.5048828125000003E-5,48,57,75,16749081,16764391,4959,24208,10488,9492,10055,3044,Tag0,unknown
1500020197720,0,75,1.64794921875E-5,48,57,75,16749081,16764391,4959,24208,10488,9492,10055,3044,Tag0,unknown
1500020197720,0,49,1.07666015625E-5,48,57,75,16749081,16764391,4959,24208,10488,9492,10055,3044,Tag0,unknown
1500020197721,0,53,1.1645507812500002E-5,48,57,75,16749081,16764391,4959,24208,10488,9492,10055,3044,Tag0,unknown
1500020197722,0,82,1.8017578124999998E-5,48,57,75,16749081,16764391,4959,24208,10488,9492,10055,3044,Tag0,unknown
1500020197722,0,91,1.99951171875E-5,48,57,75,16749081,16764391,4959,24208,10488,9492,10055,3044,Tag0,unknown
1500020197723,0,81,1.77978515625E-5,48,57,75,16749081,16764391,4959,24208,10488,9492,10055,3044,Tag0,unknown
1500020197723,0,70,1.5380859375E-5,48,57,75,16749081,16764391,4959,24208,10488,9492,10055,3044,Tag0,unknown
1500020197724,0,65,1.42822265625E-5,48,57,75,16749081,16764391,4959,24208,10488,9492,10055,3044,Tag0,unknown
1500020197724,0,71,1.56005859375E-5,48,57,75,16749081,16764391,4959,24208,10488,9492,10055,3044,Tag0,unknown
1500020197725,0,81,1.77978515625E-5,48,57,75,16749081,16764391,4959,24208,10488,9492,10055,3044,Tag0,unknown
1500020197725,0,84,1.8457031250000004E-5,48,57,75,16749081,16764391,4959,24208,10488,9492,10055,3044,Tag0,unknown
1500020197726,0,88,1.93359375E-5,48,57,75,16749081,16764391,4959,24208,10488,9492,10055,3044,Tag0,unknown
1500020197726,0,88,1.93359375E-5,48,57,75,16749081,16764391,4959,24208,10488,9492,10055,3044,Tag0,unknown
1500020197727,0,75,1.64794921875E-5,48,57,75,16749081,16764391,4959,24208,10488,9492,10055,3044,Tag0,unknown
1500020197755,0,44,9.66796875E-6,48,57,75,16749081,16764391,4959,24208,10488,9492,10055,3044,Tag0,unknown
1500020197769,0,26,5.712890625E-6,48,57,75,16749081,16764391,4959,24208,10488,9492,10055,3044,Tag0,unknown
1500020197770,0,33,7.2509765625E-6,48,57,75,16749081,16764391,4959,24208,10488,9492,10055,3044,Tag0,unknown
1500020197772,0,55,1.20849609375E-5,48,57,75,16749081,16764391,4959,24208,10488,9492,10055,3044,Tag0,unknown
1500020197773,0,74,1.6259765625E-5,48,57,75,16749081,16764391,4959,24208,10488,9492,10055,3044,Tag0,unknown
1500020197775,0,85,1.86767578125E-5,48,57,75,16749081,16764391,4959,24208,10488,9492,10055,3044,Tag0,unknown
1500020197775,0,86,1.8896484375000003E-5,48,57,75,16749081,16764391,4959,24208,10488,9492,10055,3044,Tag0,unknown
1500020197776,0,88,1.93359375E-5,48,57,75,16749081,16764391,4959,24208,10488,9492,10055,3044,Tag0,unknown
1500020197777,0,96,2.109375E-5,48,57,75,16749081,16764391,4959,24208,10488,9492,10055,3044,Tag0,unknown
1500020197778,0,99,2.1752929687500003E-5,48,57,75,16749081,16764391,4959,24208,10488,9492,10055,3044,Tag0,unknown
1500020197779,0,92,2.021484375E-5,48,57,75,16749081,16764391,4959,24208,10488,9492,10055,3044,Tag0,unknown
1500020197779,0,87,1.91162109375E-5,48,57,75,16749081,16764391,4959,24208,10488,9492,10055,3044,Tag0,unknown
1500020197780,0,87,1.91162109375E-5,48,57,75,16749081,16764391,4959,24208,10488,9492,10055,3044,Tag0,unknown
1500020197780,0,88,1.93359375E-5,48,57,75,16749081,16764391,4959,24208,10488,9492,10055,3044,Tag0,unknown
1500020197781,0,84,1.8457031250000004E-5,48,57,75,16749081,16764391,4959,24208,10488,9492,10055,3044,Tag0,unknown
1500020197782,0,80,1.7578125E-5,48,57,75,16749081,16764391,4959,24208,10488,9492,10055,3044,Tag0,unknown
1500020197782,0,76,1.669921875E-5,48,57,75,16749081,16764391,4959,24208,10488,9492,10055,3044,Tag0,unknown
1500020197783,0,83,1.82373046875E-5,48,57,75,16749081,16764391,4959,24208,10488,9492,10055,3044,Tag0,unknown
1500020197783,0,84,1.8457031250000004E-5,48,57,75,16749081,16764391,4959,24208,10488,9492,10055,3044,Tag0,unknown
1500020197784,0,90,1.9775390625E-5,48,57,75,16749081,16764391,4959,24208,10488,9492,10055,3044,Tag0,unknown
1500020197784,0,103,2.26318359375E-5,48,57,75,16749081,16764391,4959,24208,10488,9492,10055,3044,Tag0,unknown
1500020197785,0,97,2.13134765625E-5,48,57,75,16749081,16764391,4959,24208,10488,9492,10055,3044,Tag0,unknown
1500020197785,0,86,1.8896484375000003E-5,48,57,75,16749081,16764391,4959,24208,10488,9492,10055,3044,Tag0,unknown
1500020197785,0,91,1.99951171875E-5,48,57,75,16749081,16764391,4959,24208,10488,9492,10055,3044,Tag0,unknown
1500020197786,0,104,2.28515625E-5,48,57,75,16749081,16764391,4959,24208,10488,9492,10055,3044,Tag0,unknown
1500020197790,0,117,2.5708007812499998E-5,48,57,75,16749081,16764391,4959,24208,10488,9492,10055,3044,Tag0,unknown
1500020197791,0,116,2.548828125E-5,48,57,75,16749081,16764391,4959,24208,10488,9492,10055,3044,Tag0,unknown
1500020197792,0,102,2.2412109374999998E-5,48,57,75,16749081,16764391,4959,24208,10488,9492,10055,3044,Tag0,unknown
1500020197793,0,87,1.91162109375E-5,48,57,75,16749081,16764391,4959,24208,10488,9492,10055,3044,Tag0,unknown
1500020197794,0,86,1.8896484375000003E-5,48,57,75,16749081,16764391,4959,24208,10488,9492,10055,3044,Tag0,unknown
1500020197795,0,97,2.13134765625E-5,48,57,75,16749081,16764391,4959,24208,10488,9492,10055,3044,Tag0,unknown
1500020197796,0,98,2.1533203125E-5,48,57,75,16749081,16764391,4959,24208,10488,9492,10055,3044,Tag0,unknown
1500020197797,0,89,1.95556640625E-5,48,57,75,16749081,16764391,4959,24208,10488,9492,10055,3044,Tag0,unknown
1500020197797,0,76,1.669921875E-5,48,57,75,16749081,16764391,4959,24208,10488,9492,10055,3044,Tag0,unknown
1500020197798,0,74,1.6259765625E-5,48,57,75,16749081,16764391,4959,24208,10488,9492,10055,3044,Tag0,unknown
1500020197799,0,70,1.5380859375E-5,48,57,75,16749081,16764391,4959,24208,10488,9492,10055,3044,Tag0,unknown
1500020197799,0,59,1.29638671875E-5,48,57,75,16749081,16764391,4959,24208,10488,9492,10055,3044,Tag0,unknown
1500020197800,0,48,1.0546875E-5,48,57,75,16749081,16764391,4959,24208,10488,9492,10055,3044,Tag0,unknown
1500020197800,0,38,8.349609375E-6,48,57,75,16749081,16764391,4959,24208,10488,9492,10055,3044,Tag0,unknown
1500020197801,0,37,8.1298828125E-6,48,57,75,16749081,16764391,4959,24208,10488,9492,10055,3044,Tag0,unknown
1500020197823,0,41,9.008789062499999E-6,48,57,75,16749081,16764391,4959,24208,10488,9492,10055,3044,Tag0,unknown
1500020197832,0,44,9.66796875E-6,48,57,75,16749081,16764391,4959,24208,10488,9492,10055,3044,Tag0,unknown
1500020197832,0,39,8.5693359375E-6,48,57,75,16749081,16764391,4959,24208,10488,9492,10055,3044,Tag0,unknown
1500020197833,0,38,8.349609375E-6,48,57,75,16749081,16764391,4959,24208,10488,9492,10055,3044,Tag0,unknown
1500020197834,0,52,1.142578125E-5,48,57,75,16749081,16764391,4959,24208,10488,9492,10055,3044,Tag0,unknown
1500020197834,0,68,1.4941406250000001E-5,48,57,75,16749081,16764391,4959,24208,10488,9492,10055,3044,Tag0,unknown
1500020197835,0,71,1.56005859375E-5,48,57,75,16749081,16764391,4959,24208,10488,9492,10055,3044,Tag0,unknown
1500020197835,0,67,1.4721679687500002E-5,48,57,75,16749081,16764391,4959,24208,10488,9492,10055,3044,Tag0,unknown
1500020197836,0,58,1.2744140625E-5,48,57,75,16749081,16764391,4959,24208,10488,9492,10055,3044,Tag0,unknown
1500020197837,0,64,1.40625E-5,48,57,75,16749081,16764391,4959,24208,10488,9492,10055,3044,Tag0,unknown
1500020197837,0,82,1.8017578124999998E-5,48,57,75,16749081,16764391,4959,24208,10488,9492,10055,3044,Tag0,unknown
1500020197838,0,89,1.95556640625E-5,48,57,75,16749081,16764391,4959,24208,10488,9492,10055,3044,Tag0,unknown
1500020197838,0,83,1.82373046875E-5,48,57,75,16749081,16764391,4959,24208,10488,9492,10055,3044,Tag0,unknown
1500020197838,0,70,1.5380859375E-5,48,57,75,16749081,16764391,4959,24208,10488,9492,10055,3044,Tag0,unknown
1500020197839,0,57,1.2524414062500001E-5,48,57,75,16749081,16764391,4959,24208,10488,9492,10055,3044,Tag0,unknown
1500020197839,0,65,1.42822265625E-5,48,57,75,16749081,16764391,4959,24208,10488,9492,10055,3044,Tag0,unknown
1500020197840,0,84,1.8457031250000004E-5,48,57,75,16749081,16764391,4959,24208,10488,9492,10055,3044,Tag0,unknown
1500020197841,0,86,1.8896484375000003E-5,48,57,75,16749081,16764391,4959,24208,10488,9492,10055,3044,Tag0,unknown
1500020197841,0,60,1.318359375E-5,48,57,75,16749081,16764391,4959,24208,10488,9492,10055,3044,Tag0,unknown
1500020197842,0,58,1.2744140625E-5,48,57,75,16749081,16764391,4959,24208,10488,9492,10055,3044,Tag0,unknown
1500020197843,0,84,1.8457031250000004E-5,48,57,75,16749081,16764391,4959,24208,10488,9492,10055,3044,Tag0,unknown
1500020197843,0,103,2.26318359375E-5,48,57,75,16749081,16764391,4959,24208,10488,9492,10055,3044,Tag0,unknown
1500020197844,0,107,2.35107421875E-5,48,57,75,16749081,16764391,4959,24208,10488,9492,10055,3044,Tag0,unknown
1500020197845,0,102,2.2412109374999998E-5,48,57,75,16749081,16764391,4959,24208,10488,9492,10055,3044,Tag0,unknown
1500020197846,0,102,2.2412109374999998E-5,63,75,75,4887,2100,1452,3503,1248,2836,1325,392,Tag0,unknown
1500020197847,0,115,2.52685546875E-5,63,75,75,4887,2100,1452,3503,1248,2836,1325,392,Tag0,unknown
1500020197847,0,122,2.6806640625E-5,63,75,75,4887,2100,1452,3503,1248,2836,1325,392,Tag0,unknown
1500020197847,0,-128,-2.8125E-5,63,75,75,4887,2100,1452,3503,1248,2836,1325,392,Tag0,unknown
1500020197847,0,120,2.63671875E-5,63,75,75,4887,2100,1452,3503,1248,2836,1325,392,Tag0,unknown
1500020197854,0,108,2.3730468750000002E-5,63,75,75,4887,2100,1452,3503,1248,2836,1325,392,Tag0,unknown
1500020197855,0,104,2.28515625E-5,63,75,75,4887,2100,1452,3503,1248,2836,1325,392,Tag0,unknown
1500020197855,0,101,2.2192382812500002E-5,63,75,75,4887,2100,1452,3503,1248,2836,1325,392,Tag0,unknown
1500020197855,0,92,2.021484375E-5,63,75,75,4887,2100,1452,3503,1248,2836,1325,392,Tag0,unknown
1500020197855,0,86,1.8896484375000003E-5,63,75,75,4887,2100,1452,3503,1248,2836,1325,392,Tag0,unknown
1500020197856,0,73,1.6040039062500002E-5,63,75,75,4887,2100,1452,3503,1248,2836,1325,392,Tag0,unknown
1500020197888,0,72,1.58203125E-5,63,75,75,4887,2100,1452,3503,1248,2836,1325,392,Tag0,unknown
1500020197888,0,91,1.99951171875E-5,63,75,75,4887,2100,1452,3503,1248,2836,1325,392,Tag0,unknown
1500020197897,0,119,2.6147460937500004E-5,63,75,75,4887,2100,1452,3503,1248,2836,1325,392,Tag0,unknown
1500020197898,0,-124,-2.724609375E-5,63,75,75,4887,2100,1452,3503,1248,2836,1325,392,Tag0,unknown
1500020197898,0,-121,-2.6586914062500003E-5,63,75,75,4887,2100,1452,3503,1248,2836,1325,392,Tag0,unknown
1500020197898,0,124,2.724609375E-5,63,75,75,4887,2100,1452,3503,1248,2836,1325,392,Tag0,unknown
1500020197898,0,104,2.28515625E-5,63,75,75,4887,2100,1452,3503,1248,2836,1325,392,Tag0,unknown
1500020197899,0,92,2.021484375E-5,63,75,75,4887,2100,1452,3503,1248,2836,1325,392,Tag0,unknown
1500020197899,0,88,1.93359375E-5,63,75,75,4887,2100,1452,3503,1248,2836,1325,392,Tag0,unknown
1500020197899,0,83,1.82373046875E-5,63,75,75,4887,2100,1452,3503,1248,2836,1325,392,Tag0,unknown
1500020197899,0,82,1.8017578124999998E-5,63,75,75,4887,2100,1452,3503,1248,2836,1325,392,Tag0,unknown
1500020197899,0,83,1.82373046875E-5,63,75,75,4887,2100,1452,3503,1248,2836,1325,392,Tag0,unknown
1500020197900,0,81,1.77978515625E-5,63,75,75,4887,2100,1452,3503,1248,2836,1325,392,Tag0,unknown
1500020197900,0,77,1.69189453125E-5,63,75,75,4887,2100,1452,3503,1248,2836,1325,392,Tag0,unknown
1500020197900,0,85,1.86767578125E-5,63,75,75,4887,2100,1452,3503,1248,2836,1325,392,Tag0,unknown
1500020197900,0,89,1.95556640625E-5,63,75,75,4887,2100,1452,3503,1248,2836,1325,392,Tag0,unknown
1500020197901,0,89,1.95556640625E-5,63,75,75,4887,2100,1452,3503,1248,2836,1325,392,Tag0,unknown
1500020197901,0,90,1.9775390625E-5,63,75,75,4887,2100,1452,3503,1248,2836,1325,392,Tag0,unknown
1500020197901,0,91,1.99951171875E-5,63,75,75,4887,2100,1452,3503,1248,2836,1325,392,Tag0,unknown
1500020197902,0,90,1.9775390625E-5,63,75,75,4887,2100,1452,3503,1248,2836,1325,392,Tag0,unknown
1500020197902,0,101,2.2192382812500002E-5,63,75,75,4887,2100,1452,3503,1248,2836,1325,392,Tag0,unknown
1500020197902,0,118,2.5927734375E-5,63,75,75,4887,2100,1452,3503,1248,2836,1325,392,Tag0,unknown
1500020197902,0,118,2.5927734375E-5,63,75,75,4887,2100,1452,3503,1248,2836,1325,392,Tag0,unknown
1500020197903,0,87,1.91162109375E-5,63,75,75,4887,2100,1452,3503,1248,2836,1325,392,Tag0,unknown
1500020197903,0,44,9.66796875E-6,63,75,75,4887,2100,1452,3503,1248,2836,1325,392,Tag0,unknown
1500020197903,0,27,5.9326171875000005E-6,63,75,75,4887,2100,1452,3503,1248,2836,1325,392,Tag0,unknown
1500020197903,0,38,8.349609375E-6,63,75,75,4887,2100,1452,3503,1248,2836,1325,392,Tag0,unknown
1500020197904,0,53,1.1645507812500002E-5,63,75,75,4887,2100,1452,3503,1248,2836,1325,392,Tag0,unknown
1500020197904,0,64,1.40625E-5,63,75,75,4887,2100,1452,3503,1248,2836,1325,392,Tag0,unknown
1500020197904,0,64,1.40625E-5,63,75,75,4887,2100,1452,3503,1248,2836,1325,392,Tag0,unknown
1500020197953,0,61,1.34033203125E-5,63,75,75,4887,2100,1452,3503,1248,2836,1325,392,Tag0,unknown
1500020197967,0,58,1.2744140625E-5,63,75,75,4887,2100,1452,3503,1248,2836,1325,392,Tag0,unknown
1500020197969,0,51,1.1206054687499999E-5,63,75,75,4887,2100,1452,3503,1248,2836,1325,392,Tag0,unknown
1500020197969,0,37,8.1298828125E-6,63,75,75,4887,2100,1452,3503,1248,2836,1325,392,Tag0,unknown
1500020197970,0,34,7.4707031250000005E-6,63,75,75,4887,2100,1452,3503,1248,2836,1325,392,Tag0,unknown
1500020197973,0,48,1.0546875E-5,63,75,75,4887,2100,1452,3503,1248,2836,1325,392,Tag0,unknown
1500020197974,0,68,1.4941406250000001E-5,63,75,75,4887,2100,1452,3503,1248,2836,1325,392,Tag0,unknown
1500020197974,0,81,1.77978515625E-5,63,75,75,4887,2100,1452,3503,1248,2836,1325,392,Tag0,unknown
1500020197975,0,76,1.669921875E-5,63,75,75,4887,2100,1452,3503,1248,2836,1325,392,Tag0,unknown
1500020197975,0,73,1.6040039062500002E-5,63,75,75,4887,2100,1452,3503,1248,2836,1325,392,Tag0,unknown
1500020197976,0,70,1.5380859375E-5,63,75,75,4887,2100,1452,3503,1248,2836,1325,392,Tag0,unknown
1500020197976,0,73,1.6040039062500002E-5,63,75,75,4887,2100,1452,3503,1248,2836,1325,392,Tag0,unknown
1500020197976,0,91,1.99951171875E-5,63,75,75,4887,2100,1452,3503,1248,2836,1325,392,Tag0,unknown
1500020197977,0,114,2.5048828125000003E-5,63,75,75,4887,2100,1452,3503,1248,2836,1325,392,Tag0,unknown
1500020197977,0,114,2.5048828125000003E-5,63,75,75,4887,2100,1452,3503,1248,2836,1325,392,Tag0,unknown
1500020197977,0,91,1.99951171875E-5,63,75,75,4887,2100,1452,3503,1248,2836,1325,392,Tag0,unknown
1500020197978,0,74,1.6259765625E-5,63,75,75,4887,2100,1452,3503,1248,2836,1325,392,Tag0,unknown
1500020197978,0,73,1.6040039062500002E-5,63,75,75,4887,2100,1452,3503,1248,2836,1325,392,Tag0,unknown
1500020197979,0,80,1.7578125E-5,63,75,75,4887,2100,1452,3503,1248,2836,1325,392,Tag0,unknown
1500020197980,0,86,1.8896484375000003E-5,63,75,75,4887,2100,1452,3503,1248,2836,1325,392,Tag0,unknown
1500020197980,0,89,1.95556640625E-5,63,75,75,4887,2100,1452,3503,1248,2836,1325,392,Tag0,unknown
1500020197980,0,91,1.99951171875E-5,63,75,75,4887,2100,1452,3503,1248,2836,1325,392,Tag0,unknown
1500020197981,0,92,2.021484375E-5,63,75,75,4887,2100,1452,3503,1248,2836,1325,392,Tag0,unknown
1500020197982,0,91,1.99951171875E-5,63,75,75,4887,2100,1452,3503,1248,2836,1325,392,Tag0,unknown
1500020197983,0,92,2.021484375E-5,63,75,75,4887,2100,1452,3503,1248,2836,1325,392,Tag0,unknown
1500020197984,0,102,2.2412109374999998E-5,63,75,75,4887,2100,1452,3503,1248,2836,1325,392,Tag0,unknown
1500020197985,0,120,2.63671875E-5,63,75,75,4887,2100,1452,3503,1248,2836,1325,392,Tag0,unknown
1500020197986,0,-124,-2.724609375E-5,63,75,75,4887,2100,1452,3503,1248,2836,1325,392,Tag0,unknown
1500020197987,0,121,2.6586914062500003E-5,63,75,75,4887,2100,1452,3503,1248,2836,1325,392,Tag0,unknown
1500020197987,0,98,2.1533203125E-5,63,75,75,4887,2100,1452,3503,1248,2836,1325,392,Tag0,unknown
1500020197988,0,91,1.99951171875E-5,63,75,75,4887,2100,1452,3503,1248,2836,1325,392,Tag0,unknown
1500020197989,0,102,2.2412109374999998E-5,63,75,75,4887,2100,1452,3503,1248,2836,1325,392,Tag0,unknown
1500020197989,0,107,2.35107421875E-5,63,75,75,4887,2100,1452,3503,1248,2836,1325,392,Tag0,unknown
1500020197990,0,100,2.197265625E-5,63,75,75,4887,2100,1452,3503,1248,2836,1325,392,Tag0,unknown
1500020197991,0,82,1.8017578124999998E-5,63,75,75,4887,2100,1452,3503,1248,2836,1325,392,Tag0,unknown
1500020197992,0,54,1.1865234375000001E-5,63,75,75,4887,2100,1452,3503,1248,2836,1325,392,Tag0,unknown
1500020197992,0,41,9.008789062499999E-6,63,75,75,4887,2100,1452,3503,1248,2836,1325,392,Tag0,unknown
1500020197992,0,55,1.20849609375E-5,63,75,75,4887,2100,1452,3503,1248,2836,1325,392,Tag0,unknown
1500020197993,0,73,1.6040039062500002E-5,63,75,75,4887,2100,1452,3503,1248,2836,1325,392,Tag0,unknown
1500020197993,0,83,1.82373046875E-5,63,75,75,4887,2100,1452,3503,1248,2836,1325,392,Tag0,unknown
1500020198034,0,84,1.8457031250000004E-5,63,75,75,4887,2100,1452,3503,1248,2836,1325,392,Tag0,unknown
1500020198054,0,83,1.82373046875E-5,63,75,75,4887,2100,1452,3503,1248,2836,1325,392,Tag0,unknown
1500020198055,0,81,1.77978515625E-5,63,75,75,4887,2100,1452,3503,1248,2836,1325,392,Tag0,unknown
1500020198056,0,74,1.6259765625E-5,63,75,75,4887,2100,1452,3503,1248,2836,1325,392,Tag0,unknown
1500020198056,0,73,1.6040039062500002E-5,63,75,75,4887,2100,1452,3503,1248,2836,1325,392,Tag0,unknown
1500020198057,0,65,1.42822265625E-5,63,75,75,4887,2100,1452,3503,1248,2836,1325,392,Tag0,unknown
1500020198057,0,52,1.142578125E-5,63,75,75,4887,2100,1452,3503,1248,2836,1325,392,Tag0,unknown
1500020198058,0,50,1.0986328125E-5,63,75,75,4887,2100,1452,3503,1248,2836,1325,392,Tag0,unknown
1500020198058,0,59,1.29638671875E-5,63,75,75,4887,2100,1452,3503,1248,2836,1325,392,Tag0,unknown
1500020198058,0,58,1.2744140625E-5,63,75,75,4887,2100,1452,3503,1248,2836,1325,392,Tag0,unknown
1500020198059,0,39,8.5693359375E-6,63,75,75,4887,2100,1452,3503,1248,2836,1325,392,Tag0,unknown
1500020198059,0,33,7.2509765625E-6,63,75,75,4887,2100,1452,3503,1248,2836,1325,392,Tag0,unknown
1500020198060,0,42,9.228515625000002E-6,63,75,75,4887,2100,1452,3503,1248,2836,1325,392,Tag0,unknown
1500020198060,0,59,1.29638671875E-5,63,75,75,4887,2100,1452,3503,1248,2836,1325,392,Tag0,unknown
1500020198060,0,82,1.8017578124999998E-5,63,75,75,4887,2100,1452,3503,1248,2836,1325,392,Tag0,unknown
1500020198061,0,92,2.021484375E-5,63,75,75,4887,2100,1452,3503,1248,2836,1325,392,Tag0,unknown
1500020198062,0,82,1.8017578124999998E-5,63,75,75,4887,2100,1452,3503,1248,2836,1325,392,Tag0,unknown
1500020198063,0,61,1.34033203125E-5,63,75,75,4887,2100,1452,3503,1248,2836,1325,392,Tag0,unknown
1500020198064,0,55,1.20849609375E-5,63,75,75,4887,2100,1452,3503,1248,2836,1325,392,Tag0,unknown
1500020198065,0,50,1.0986328125E-5,63,75,75,4887,2100,1452,3503,1248,2836,1325,392,Tag0,unknown
1500020198066,0,43,9.448242187500001E-6,63,75,75,4887,2100,1452,3503,1248,2836,1325,392,Tag0,unknown
1500020198067,0,43,9.448242187500001E-6,63,75,75,4887,2100,1452,3503,1248,2836,1325,392,Tag0,unknown
1500020198067,0,39,8.5693359375E-6,63,75,75,4887,2100,1452,3503,1248,2836,1325,392,Tag0,unknown
1500020198068,0,27,5.9326171875000005E-6,63,75,75,4887,2100,1452,3503,1248,2836,1325,392,Tag0,unknown
1500020198068,0,24,5.2734375E-6,63,75,75,4887,2100,1452,3503,1248,2836,1325,392,Tag0,unknown
1500020198069,0,26,5.712890625E-6,63,75,75,4887,2100,1452,3503,1248,2836,1325,392,Tag0,unknown
1500020198069,0,22,4.833984375E-6,63,75,75,4887,2100,1452,3503,1248,2836,1325,392,Tag0,unknown
1500020198070,0,18,3.955078125E-6,63,75,75,4887,2100,1452,3503,1248,2836,1325,392,Tag0,unknown
1500020198070,0,20,4.39453125E-6,63,75,75,4887,2100,1452,3503,1248,2836,1325,392,Tag0,unknown
1500020198071,0,26,5.712890625E-6,63,75,75,4887,2100,1452,3503,1248,2836,1325,392,Tag0,unknown
1500020198071,0,36,7.91015625E-6,63,75,75,4887,2100,1452,3503,1248,2836,1325,392,Tag0,unknown
1500020198072,0,42,9.228515625000002E-6,63,75,75,4887,2100,1452,3503,1248,2836,1325,392,Tag0,unknown
1500020198072,0,55,1.20849609375E-5,63,75,75,4887,2100,1452,3503,1248,2836,1325,392,Tag0,unknown
1500020198073,0,66,1.4501953125E-5,63,75,75,4887,2100,1452,3503,1248,2836,1325,392,Tag0,unknown
1500020198073,0,59,1.29638671875E-5,63,75,75,4887,2100,1452,3503,1248,2836,1325,392,Tag0,unknown
1500020198073,0,58,1.2744140625E-5,63,75,75,4887,2100,1452,3503,1248,2836,1325,392,Tag0,unknown
1500020198074,0,71,1.56005859375E-5,63,75,75,4887,2100,1452,3503,1248,2836,1325,392,Tag0,unknown
1500020198074,0,88,1.93359375E-5,63,75,75,4887,2100,1452,3503,1248,2836,1325,392,Tag0,unknown
1500020198075,0,103,2.26318359375E-5,63,75,75,4887,2100,1452,3503,1248,2836,1325,392,Tag0,unknown
1500020198075,0,113,2.48291015625E-5,63,75,75,4887,2100,1452,3503,1248,2836,1325,392,Tag0,unknown
1500020198116,0,108,2.3730468750000002E-5,63,75,75,4887,2100,1452,3503,1248,2836,1325,392,Tag0,unknown
1500020198139,0,90,1.9775390625E-5,63,75,75,4887,2100,1452,3503,1248,2836,1325,392,Tag0,unknown
1500020198140,0,71,1.56005859375E-5,63,75,75,4887,2100,1452,3503,1248,2836,1325,392,Tag0,unknown
1500020198141,0,67,1.4721679687500002E-5,63,75,75,4887,2100,1452,3503,1248,2836,1325,392,Tag0,unknown
1500020198143,0,80,1.7578125E-5,63,75,75,4887,2100,1452,3503,1248,2836,1325,392,Tag0,unknown
1500020198144,0,87,1.91162109375E-5,63,75,75,4887,2100,1452,3503,1248,2836,1325,392,Tag0,unknown
1500020198145,0,86,1.8896484375000003E-5,63,75,75,4887,2100,1452,3503,1248,2836,1325,392,Tag0,unknown
1500020198146,0,83,1.82373046875E-5,63,75,75,4887,2100,1452,3503,1248,2836,1325,392,Tag0,unknown
1500020198147,0,82,1.8017578124999998E-5,63,75,75,4887,2100,1452,3503,1248,2836,1325,392,Tag0,unknown
1500020198147,0,77,1.69189453125E-5,63,75,75,4887,2100,1452,3503,1248,2836,1325,392,Tag0,unknown
1500020198183,0,71,1.56005859375E-5,63,75,75,4887,2100,1452,3503,1248,2836,1325,392,Tag0,unknown
1500020198200,0,71,1.56005859375E-5,63,75,75,4887,2100,1452,3503,1248,2836,1325,392,Tag0,unknown
1500020198201,0,71,1.56005859375E-5,63,75,75,4887,2100,1452,3503,1248,2836,1325,392,Tag0,unknown
1500020198201,0,56,1.23046875E-5,63,75,75,4887,2100,1452,3503,1248,2836,1325,392,Tag0,unknown
1500020198202,0,50,1.0986328125E-5,63,75,75,4887,2100,1452,3503,1248,2836,1325,392,Tag0,unknown
1500020198202,0,55,1.20849609375E-5,63,75,75,4887,2100,1452,3503,1248,2836,1325,392,Tag0,unknown
1500020198203,0,67,1.4721679687500002E-5,63,75,75,4887,2100,1452,3503,1248,2836,1325,392,Tag0,unknown
1500020198203,0,73,1.6040039062500002E-5,63,75,75,4887,2100,1452,3503,1248,2836,1325,392,Tag0,unknown
1500020198204,0,80,1.7578125E-5,63,75,75,4887,2100,1452,3503,1248,2836,1325,392,Tag0,unknown
1500020198204,0,84,1.8457031250000004E-5,63,75,75,4887,2100,1452,3503,1248,2836,1325,392,Tag0,unknown
1500020198250,0,82,1.8017578124999998E-5,63,75,75,4887,2100,1452,3503,1248,2836,1325,392,Tag0,unknown
1500020198269,0,76,1.669921875E-5,63,75,75,4887,2100,1452,3503,1248,2836,1325,392,Tag0,unknown
1500020198270,0,76,1.669921875E-5,63,75,75,4887,2100,1452,3503,1248,2836,1325,392,Tag0,unknown
1500020198271,0,75,1.64794921875E-5,63,75,75,4887,2100,1452,3503,1248,2836,1325,392,Tag0,unknown
1500020198272,0,73,1.6040039062500002E-5,63,75,75,4887,2100,1452,3503,1248,2836,1325,392,Tag0,unknown
1500020198273,0,70,1.5380859375E-5,63,75,75,4887,2100,1452,3503,1248,2836,1325,392,Tag0,unknown
1500020198274,0,64,1.40625E-5,63,75,75,4887,2100,1452,3503,1248,2836,1325,392,Tag0,unknown
1500020198274,0,54,1.1865234375000001E-5,63,75,75,4887,2100,1452,3503,1248,2836,1325,392,Tag0,unknown
1500020198275,0,44,9.66796875E-6,63,75,75,4887,2100,1452,3503,1248,2836,1325,392,Tag0,unknown
1500020198276,0,44,9.66796875E-6,63,75,75,4887,2100,1452,3503,1248,2836,1325,392,Tag0,unknown
1500020198301,0,53,1.1645507812500002E-5,63,75,75,4887,2100,1452,3503,1248,2836,1325,392,Tag0,unknown
1500020198301,0,57,1.2524414062500001E-5,63,75,75,4887,2100,1452,3503,1248,2836,1325,392,Tag0,unknown
1500020198319,0,36,7.91015625E-6,63,75,75,4887,2100,1452,3503,1248,2836,1325,392,Tag0,unknown
1500020198320,0,6,1.318359375E-6,63,75,75,4887,2100,1452,3503,1248,2836,1325,392,Tag0,unknown
1500020198320,0,0,0.0,63,75,75,4887,2100,1452,3503,1248,2836,1325,392,Tag0,unknown
1500020198321,0,16,3.515625E-6,63,75,75,4887,2100,1452,3503,1248,2836,1325,392,Tag0,unknown
1500020198322,0,27,5.9326171875000005E-6,63,75,75,4887,2100,1452,3503,1248,2836,1325,392,Tag0,unknown
1500020198322,0,21,4.614257812500001E-6,63,75,75,4887,2100,1452,3503,1248,2836,1325,392,Tag0,unknown
1500020198324,0,4,8.7890625E-7,63,75,75,4887,2100,1452,3503,1248,2836,1325,392,Tag0,unknown
1500020198325,0,-261,-5.73486328125E-5,63,75,75,4887,2100,1452,3503,1248,2836,1325,392,Tag0,unknown
1500020198325,0,-263,-5.7788085937500005E-5,63,75,75,4887,2100,1452,3503,1248,2836,1325,392,Tag0,unknown
1500020198326,0,-265,-5.82275390625E-5,63,75,75,4887,2100,1452,3503,1248,2836,1325,392,Tag0,unknown
1500020198327,0,-274,-6.0205078124999997E-5,63,75,75,4887,2100,1452,3503,1248,2836,1325,392,Tag0,unknown
1500020198327,0,-281,-6.17431640625E-5,63,75,75,4887,2100,1452,3503,1248,2836,1325,392,Tag0,unknown
1500020198328,0,-276,-6.064453125E-5,63,75,75,4887,2100,1452,3503,1248,2836,1325,392,Tag0,unknown
1500020198328,0,4,8.7890625E-7,63,75,75,4887,2100,1452,3503,1248,2836,1325,392,Tag0,unknown
1500020198328,0,27,5.9326171875000005E-6,63,75,75,4887,2100,1452,3503,1248,2836,1325,392,Tag0,unknown
1500020198329,0,21,4.614257812500001E-6,63,75,75,4887,2100,1452,3503,1248,2836,1325,392,Tag0,unknown
1500020198329,0,10,2.197265625E-6,63,75,75,4887,2100,1452,3503,1248,2836,1325,392,Tag0,unknown
1500020198330,0,27,5.9326171875000005E-6,63,75,75,4887,2100,1452,3503,1248,2836,1325,392,Tag0,unknown
1500020198330,0,60,1.318359375E-5,63,75,75,4887,2100,1452,3503,1248,2836,1325,392,Tag0,unknown
1500020198330,0,81,1.77978515625E-5,63,75,75,4887,2100,1452,3503,1248,2836,1325,392,Tag0,unknown
1500020198330,0,67,1.4721679687500002E-5,63,75,75,4887,2100,1452,3503,1248,2836,1325,392,Tag0,unknown
1500020198334,0,42,9.228515625000002E-6,63,75,75,4887,2100,1452,3503,1248,2836,1325,392,Tag0,unknown
1500020198335,0,37,8.1298828125E-6,63,75,75,4887,2100,1452,3503,1248,2836,1325,392,Tag0,unknown
1500020198335,0,48,1.0546875E-5,63,75,75,4887,2100,1452,3503,1248,2836,1325,392,Tag0,unknown
1500020198335,0,54,1.1865234375000001E-5,63,75,75,4887,2100,1452,3503,1248,2836,1325,392,Tag0,unknown
1500020198335,0,60,1.318359375E-5,63,75,75,4887,2100,1452,3503,1248,2836,1325,392,Tag0,unknown
1500020198336,0,70,1.5380859375E-5,63,75,75,4887,2100,1452,3503,1248,2836,1325,392,Tag0,unknown
1500020198336,0,75,1.64794921875E-5,63,75,75,4887,2100,1452,3503,1248,2836,1325,392,Tag0,unknown
1500020198336,0,74,1.6259765625E-5,63,75,75,4887,2100,1452,3503,1248,2836,1325,392,Tag0,unknown
1500020198336,0,65,1.42822265625E-5,63,75,75,4887,2100,1452,3503,1248,2836,1325,392,Tag0,unknown
1500020198337,0,50,1.0986328125E-5,63,75,75,4887,2100,1452,3503,1248,2836,1325,392,Tag0,unknown
1500020198337,0,40,8.7890625E-6,63,75,75,4887,2100,1452,3503,1248,2836,1325,392,Tag0,unknown
1500020198337,0,43,9.448242187500001E-6,63,75,75,4887,2100,1452,3503,1248,2836,1325,392,Tag0,unknown
1500020198337,0,43,9.448242187500001E-6,63,75,75,4887,2100,1452,3503,1248,2836,1325,392,Tag0,unknown
1500020198337,0,28,6.15234375E-6,63,75,75,4887,2100,1452,3503,1248,2836,1325,392,Tag0,unknown
1500020198338,0,8,1.7578125E-6,63,75,75,4887,2100,1452,3503,1248,2836,1325,392,Tag0,unknown
1500020198338,0,-261,-5.73486328125E-5,63,75,75,4887,2100,1452,3503,1248,2836,1325,392,Tag0,unknown
1500020198338,0,2,4.39453125E-7,63,75,75,4887,2100,1452,3503,1248,2836,1325,392,Tag0,unknown
1500020198338,0,36,7.91015625E-6,63,75,75,4887,2100,1452,3503,1248,2836,1325,392,Tag0,unknown
1500020198339,0,68,1.4941406250000001E-5,63,75,75,4887,2100,1452,3503,1248,2836,1325,392,Tag0,unknown
1500020198339,0,76,1.669921875E-5,63,75,75,4887,2100,1452,3503,1248,2836,1325,392,Tag0,unknown
1500020198339,0,67,1.4721679687500002E-5,63,75,75,4887,2100,1452,3503,1248,2836,1325,392,Tag0,unknown
1500020198339,0,59,1.29638671875E-5,63,75,75,4887,2100,1452,3503,1248,2836,1325,392,Tag0,unknown
1500020198340,0,57,1.2524414062500001E-5,63,75,75,4887,2100,1452,3503,1248,2836,1325,392,Tag0,unknown
1500020198340,0,50,1.0986328125E-5,63,75,75,4887,2100,1452,3503,1248,2836,1325,392,Tag0,unknown
1500020198340,0,42,9.228515625000002E-6,63,75,75,4887,2100,1452,3503,1248,2836,1325,392,Tag0,unknown
1500020198340,0,43,9.448242187500001E-6,63,75,75,4887,2100,1452,3503,1248,2836,1325,392,Tag0,unknown
1500020198340,0,56,1.23046875E-5,63,75,75,4887,2100,1452,3503,1248,2836,1325,392,Tag0,unknown
1500020198341,0,71,1.56005859375E-5,63,75,75,4887,2100,1452,3503,1248,2836,1325,392,Tag0,unknown
1500020198341,0,76,1.669921875E-5,63,75,75,4887,2100,1452,3503,1248,2836,1325,392,Tag0,unknown
1500020198342,0,74,1.6259765625E-5,63,75,75,4887,2100,1452,3503,1248,2836,1325,392,Tag0,unknown
1500020198342,0,76,1.669921875E-5,63,75,75,4887,2100,1452,3503,1248,2836,1325,392,Tag0,unknown
1500020198342,0,81,1.77978515625E-5,63,75,75,4887,2100,1452,3503,1248,2836,1325,392,Tag0,unknown
1500020198342,0,74,1.6259765625E-5,63,75,75,4887,2100,1452,3503,1248,2836,1325,392,Tag0,unknown
1500020198342,0,89,1.95556640625E-5,63,75,75,4887,2100,1452,3503,1248,2836,1325,392,Tag0,unknown
1500020198343,0,108,2.3730468750000002E-5,63,75,75,4887,2100,1452,3503,1248,2836,1325,392,Tag0,unknown
1500020198343,0,113,2.48291015625E-5,63,75,75,4887,2100,1452,3503,1248,2836,1325,392,Tag0,unknown
1500020198343,0,89,1.95556640625E-5,63,75,75,4887,2100,1452,3503,1248,2836,1325,392,Tag0,unknown
1500020198364,0,57,1.2524414062500001E-5,63,75,75,4887,2100,1452,3503,1248,2836,1325,392,Tag0,unknown
1500020198386,0,38,8.349609375E-6,63,75,75,4887,2100,1452,3503,1248,2836,1325,392,Tag0,unknown
1500020198387,0,32,7.03125E-6,63,75,75,4887,2100,1452,3503,1248,2836,1325,392,Tag0,unknown
1500020198387,0,29,6.3720703125E-6,63,75,75,4887,2100,1452,3503,1248,2836,1325,392,Tag0,unknown
1500020198387,0,23,5.0537109375E-6,63,75,75,4887,2100,1452,3503,1248,2836,1325,392,Tag0,unknown
1500020198388,0,17,3.7353515625000003E-6,63,75,75,4887,2100,1452,3503,1248,2836,1325,392,Tag0,unknown
1500020198389,0,12,2.63671875E-6,63,75,75,4887,2100,1452,3503,1248,2836,1325,392,Tag0,unknown
1500020198389,0,19,4.1748046875E-6,63,75,75,4887,2100,1452,3503,1248,2836,1325,392,Tag0,unknown
1500020198389,0,32,7.03125E-6,63,75,75,4887,2100,1452,3503,1248,2836,1325,392,Tag0,unknown
1500020198390,0,51,1.1206054687499999E-5,63,75,75,4887,2100,1452,3503,1248,2836,1325,392,Tag0,unknown
1500020198390,0,69,1.51611328125E-5,63,75,75,4887,2100,1452,3503,1248,2836,1325,392,Tag0,unknown
1500020198391,0,85,1.86767578125E-5,63,75,75,4887,2100,1452,3503,1248,2836,1325,392,Tag0,unknown
1500020198392,0,84,1.8457031250000004E-5,63,75,75,4887,2100,1452,3503,1248,2836,1325,392,Tag0,unknown
1500020198393,0,76,1.669921875E-5,63,75,75,4887,2100,1452,3503,1248,2836,1325,392,Tag0,unknown
1500020198393,0,67,1.4721679687500002E-5,63,75,75,4887,2100,1452,3503,1248,2836,1325,392,Tag0,unknown
1500020198394,0,50,1.0986328125E-5,63,75,75,4887,2100,1452,3503,1248,2836,1325,392,Tag0,unknown
1500020198395,0,36,7.91015625E-6,63,75,75,4887,2100,1452,3503,1248,2836,1325,392,Tag0,unknown
1500020198395,0,36,7.91015625E-6,63,75,75,4887,2100,1452,3503,1248,2836,1325,392,Tag0,unknown
1500020198396,0,51,1.1206054687499999E-5,63,75,75,4887,2100,1452,3503,1248,2836,1325,392,Tag0,unknown
1500020198396,0,60,1.318359375E-5,63,75,75,4887,2100,1452,3503,1248,2836,1325,392,Tag0,unknown
1500020198397,0,65,1.42822265625E-5,63,75,75,4887,2100,1452,3503,1248,2836,1325,392,Tag0,unknown
1500020198397,0,70,1.5380859375E-5,63,75,75,4887,2100,1452,3503,1248,2836,1325,392,Tag0,unknown
1500020198397,0,84,1.8457031250000004E-5,63,75,75,4887,2100,1452,3503,1248,2836,1325,392,Tag0,unknown
1500020198398,0,83,1.82373046875E-5,63,75,75,4887,2100,1452,3503,1248,2836,1325,392,Tag0,unknown
1500020198398,0,56,1.23046875E-5,63,75,75,4887,2100,1452,3503,1248,2836,1325,392,Tag0,unknown
1500020198399,0,40,8.7890625E-6,63,75,75,4887,2100,1452,3503,1248,2836,1325,392,Tag0,unknown
1500020198400,0,58,1.2744140625E-5,63,75,75,4887,2100,1452,3503,1248,2836,1325,392,Tag0,unknown
1500020198401,0,81,1.77978515625E-5,63,75,75,4887,2100,1452,3503,1248,2836,1325,392,Tag0,unknown
1500020198402,0,80,1.7578125E-5,63,75,75,4887,2100,1452,3503,1248,2836,1325,392,Tag0,unknown
1500020198403,0,65,1.42822265625E-5,63,75,75,4887,2100,1452,3503,1248,2836,1325,392,Tag0,unknown
1500020198403,0,57,1.2524414062500001E-5,63,75,75,4887,2100,1452,3503,1248,2836,1325,392,Tag0,unknown
1500020198404,0,65,1.42822265625E-5,63,75,75,4887,2100,1452,3503,1248,2836,1325,392,Tag0,unknown
1500020198405,0,73,1.6040039062500002E-5,63,75,75,4887,2100,1452,3503,1248,2836,1325,392,Tag0,unknown
1500020198406,0,80,1.7578125E-5,63,75,75,4887,2100,1452,3503,1248,2836,1325,392,Tag0,unknown
1500020198406,0,72,1.58203125E-5,63,75,75,4887,2100,1452,3503,1248,2836,1325,392,Tag0,unknown
1500020198407,0,64,1.40625E-5,63,75,75,4887,2100,1452,3503,1248,2836,1325,392,Tag0,unknown
1500020198407,0,56,1.23046875E-5,63,75,75,4887,2100,1452,3503,1248,2836,1325,392,Tag0,unknown
1500020198407,0,52,1.142578125E-5,63,75,75,4887,2100,1452,3503,1248,2836,1325,392,Tag0,unknown
1500020198408,0,59,1.29638671875E-5,63,75,75,4887,2100,1452,3503,1248,2836,1325,392,Tag0,unknown
1500020198408,0,85,1.86767578125E-5,63,75,75,4887,2100,1452,3503,1248,2836,1325,392,Tag0,unknown
1500020198409,0,105,2.30712890625E-5,63,75,75,4887,2100,1452,3503,1248,2836,1325,392,Tag0,unknown
1500020198409,0,116,2.548828125E-5,63,75,75,4887,2100,1452,3503,1248,2836,1325,392,Tag0,unknown
1500020198410,0,123,2.70263671875E-5,63,75,75,4887,2100,1452,3503,1248,2836,1325,392,Tag0,unknown
1500020198410,0,121,2.6586914062500003E-5,63,75,75,4887,2100,1452,3503,1248,2836,1325,392,Tag0,unknown
1500020198410,0,105,2.30712890625E-5,63,75,75,4887,2100,1452,3503,1248,2836,1325,392,Tag0,unknown
1500020198411,0,84,1.8457031250000004E-5,63,75,75,4887,2100,1452,3503,1248,2836,1325,392,Tag0,unknown
1500020198411,0,71,1.56005859375E-5,63,75,75,4887,2100,1452,3503,1248,2836,1325,392,Tag0,unknown
1500020198412,0,75,1.64794921875E-5,63,75,75,4887,2100,1452,3503,1248,2836,1325,392,Tag0,unknown
1500020198412,0,96,2.109375E-5,63,75,75,4887,2100,1452,3503,1248,2836,1325,392,Tag0,unknown
1500020198412,0,113,2.48291015625E-5,63,75,75,4887,2100,1452,3503,1248,2836,1325,392,Tag0,unknown
1500020198413,0,114,2.5048828125000003E-5,63,75,75,4887,2100,1452,3503,1248,2836,1325,392,Tag0,unknown
1500020198413,0,108,2.3730468750000002E-5,63,75,75,4887,2100,1452,3503,1248,2836,1325,392,Tag0,unknown
1500020198414,0,102,2.2412109374999998E-5,63,75,75,4887,2100,1452,3503,1248,2836,1325,392,Tag0,unknown
1500020198414,0,99,2.1752929687500003E-5,63,75,75,4887,2100,1452,3503,1248,2836,1325,392,Tag0,unknown
1500020198415,0,98,2.1533203125E-5,63,75,75,4887,2100,1452,3503,1248,2836,1325,392,Tag0,unknown
1500020198415,0,104,2.28515625E-5,63,75,75,4887,2100,1452,3503,1248,2836,1325,392,Tag0,unknown
1500020198415,0,119,2.6147460937500004E-5,63,75,75,4887,2100,1452,3503,1248,2836,1325,392,Tag0,unknown
1500020198416,0,-121,-2.6586914062500003E-5,63,75,75,4887,2100,1452,3503,1248,2836,1325,392,Tag0,unknown
1500020198416,0,-124,-2.724609375E-5,63,75,75,4887,2100,1452,3503,1248,2836,1325,392,Tag0,unknown
1500020198417,0,100,2.197265625E-5,63,75,75,4887,2100,1452,3503,1248,2836,1325,392,Tag0,unknown
1500020198417,0,68,1.4941406250000001E-5,63,75,75,4887,2100,1452,3503,1248,2836,1325,392,Tag0,unknown
1500020198418,0,56,1.23046875E-5,63,75,75,4887,2100,1452,3503,1248,2836,1325,392,Tag0,unknown
1500020198418,0,60,1.318359375E-5,63,75,75,4887,2100,1452,3503,1248,2836,1325,392,Tag0,unknown
1500020198418,0,65,1.42822265625E-5,63,75,75,4887,2100,1452,3503,1248,2836,1325,392,Tag0,unknown
1500020198419,0,56,1.23046875E-5,63,75,75,4887,2100,1452,3503,1248,2836,1325,392,Tag0,unknown
1500020198420,0,40,8.7890625E-6,63,75,75,4887,2100,1452,3503,1248,2836,1325,392,Tag0,unknown
1500020198420,0,37,8.1298828125E-6,63,75,75,4887,2100,1452,3503,1248,2836,1325,392,Tag0,unknown
1500020198420,0,54,1.1865234375000001E-5,63,75,75,4887,2100,1452,3503,1248,2836,1325,392,Tag0,unknown
1500020198420,0,67,1.4721679687500002E-5,63,75,75,4887,2100,1452,3503,1248,2836,1325,392,Tag0,unknown
1500020198421,0,59,1.29638671875E-5,63,75,75,4887,2100,1452,3503,1248,2836,1325,392,Tag0,unknown
1500020198431,0,54,1.1865234375000001E-5,63,75,75,4887,2100,1452,3503,1248,2836,1325,392,Tag0,unknown
1500020198438,0,56,1.23046875E-5,63,75,75,4887,2100,1452,3503,1248,2836,1325,392,Tag0,unknown
1500020198439,0,49,1.07666015625E-5,63,75,75,4887,2100,1452,3503,1248,2836,1325,392,Tag0,unknown
1500020198439,0,38,8.349609375E-6,63,75,75,4887,2100,1452,3503,1248,2836,1325,392,Tag0,unknown
1500020198440,0,37,8.1298828125E-6,63,75,75,4887,2100,1452,3503,1248,2836,1325,392,Tag0,unknown
1500020198440,0,45,9.8876953125E-6,63,75,75,4887,2100,1452,3503,1248,2836,1325,392,Tag0,unknown
1500020198441,0,48,1.0546875E-5,63,75,75,4887,2100,1452,3503,1248,2836,1325,392,Tag0,unknown
1500020198442,0,43,9.448242187500001E-6,63,75,75,4887,2100,1452,3503,1248,2836,1325,392,Tag0,unknown
1500020198442,0,44,9.66796875E-6,63,75,75,4887,2100,1452,3503,1248,2836,1325,392,Tag0,unknown
1500020198443,0,44,9.66796875E-6,63,75,75,4887,2100,1452,3503,1248,2836,1325,392,Tag0,unknown
1500020198444,0,41,9.008789062499999E-6,63,75,75,4887,2100,1452,3503,1248,2836,1325,392,Tag0,unknown
1500020198444,0,42,9.228515625000002E-6,63,75,75,4887,2100,1452,3503,1248,2836,1325,392,Tag0,unknown
1500020198445,0,54,1.1865234375000001E-5,63,75,75,4887,2100,1452,3503,1248,2836,1325,392,Tag0,unknown
1500020198445,0,69,1.51611328125E-5,63,75,75,4887,2100,1452,3503,1248,2836,1325,392,Tag0,unknown
1500020198445,0,70,1.5380859375E-5,63,75,75,4887,2100,1452,3503,1248,2836,1325,392,Tag0,unknown
