timestampMs,poorSignal,eegRawValue,eegRawValueVolts,attention,meditation,blinkStrength,delta,theta,alphaLow,alphaHigh,betaLow,betaHigh,gammaLow,gammaMid,tagEvent,location
1500020097758,0,57,1.2524414062500001E-5,40,64,47,2644,5073,2312,4663,2915,2371,2176,1339,Tag0,unknown
1500020097758,0,58,1.2744140625E-5,40,64,47,2644,5073,2312,4663,2915,2371,2176,1339,Tag0,unknown
1500020097776,0,73,1.6040039062500002E-5,40,64,47,2644,5073,2312,4663,2915,2371,2176,1339,Tag0,unknown
1500020097776,0,80,1.7578125E-5,40,64,47,2644,5073,2312,4663,2915,2371,2176,1339,Tag0,unknown
1500020097777,0,71,1.56005859375E-5,40,64,47,2644,5073,2312,4663,2915,2371,2176,1339,Tag0,unknown
1500020097777,0,60,1.318359375E-5,40,64,47,2644,5073,2312,4663,2915,2371,2176,1339,Tag0,unknown
1500020097777,0,55,1.20849609375E-5,40,64,47,2644,5073,2312,4663,2915,2371,2176,1339,Tag0,unknown
1500020097778,0,54,1.1865234375000001E-5,40,64,47,2644,5073,2312,4663,2915,2371,2176,1339,Tag0,unknown
1500020097778,0,56,1.23046875E-5,40,64,47,2644,5073,2312,4663,2915,2371,2176,1339,Tag0,unknown
1500020097778,0,68,1.4941406250000001E-5,40,64,47,2644,5073,2312,4663,2915,2371,2176,1339,Tag0,unknown
1500020097778,0,82,1.8017578124999998E-5,40,64,47,2644,5073,2312,4663,2915,2371,2176,1339,Tag0,unknown
1500020097779,0,80,1.7578125E-5,40,64,47,2644,5073,2312,4663,2915,2371,2176,1339,Tag0,unknown
1500020097779,0,83,1.82373046875E-5,40,64,47,2644,5073,2312,4663,2915,2371,2176,1339,Tag0,unknown
1500020097779,0,91,1.99951171875E-5,40,64,47,2644,5073,2312,4663,2915,2371,2176,1339,Tag0,unknown
1500020097779,0,98,2.1533203125E-5,40,64,47,2644,5073,2312,4663,2915,2371,2176,1339,Tag0,unknown
1500020097780,0,96,2.109375E-5,40,64,47,2644,5073,2312,4663,2915,2371,2176,1339,Tag0,unknown
1500020097780,0,84,1.8457031250000004E-5,40,64,47,2644,5073,2312,4663,2915,2371,2176,1339,Tag0,unknown
1500020097780,0,72,1.58203125E-5,40,64,47,2644,5073,2312,4663,2915,2371,2176,1339,Tag0,unknown
1500020097780,0,68,1.4941406250000001E-5,40,64,47,2644,5073,2312,4663,2915,2371,2176,1339,Tag0,unknown
1500020097781,0,57,1.2524414062500001E-5,40,64,47,2644,5073,2312,4663,2915,2371,2176,1339,Tag0,unknown
1500020097795,0,43,9.448242187500001E-6,40,64,47,2644,5073,2312,4663,2915,2371,2176,1339,Tag0,unknown
1500020097810,0,26,5.712890625E-6,40,64,47,2644,5073,2312,4663,2915,2371,2176,1339,Tag0,unknown
1500020097810,0,11,2.4169921875E-6,40,64,47,2644,5073,2312,4663,2915,2371,2176,1339,Tag0,unknown
1500020097810,0,9,1.9775390625E-6,40,64,47,2644,5073,2312,4663,2915,2371,2176,1339,Tag0,unknown
1500020097811,0,16,3.515625E-6,40,64,47,2644,5073,2312,4663,2915,2371,2176,1339,Tag0,unknown
1500020097811,0,22,4.833984375E-6,40,64,47,2644,5073,2312,4663,2915,2371,2176,1339,Tag0,unknown
1500020097811,0,23,5.0537109375E-6,40,64,47,2644,5073,2312,4663,2915,2371,2176,1339,Tag0,unknown
1500020097812,0,8,1.7578125E-6,40,64,47,2644,5073,2312,4663,2915,2371,2176,1339,Tag0,unknown
1500020097812,0,-268,-5.8886718750000006E-5,40,64,47,2644,5073,2312,4663,2915,2371,2176,1339,Tag0,unknown
1500020097812,0,-269,-5.9106445312499996E-5,40,64,47,2644,5073,2312,4663,2915,2371,2176,1339,Tag0,unknown
1500020097812,0,19,4.1748046875E-6,40,64,47,2644,5073,2312,4663,2915,2371,2176,1339,Tag0,unknown
1500020097813,0,44,9.66796875E-6,40,64,47,2644,5073,2312,4663,2915,2371,2176,1339,Tag0,unknown
1500020097813,0,34,7.4707031250000005E-6,40,64,47,2644,5073,2312,4663,2915,2371,2176,1339,Tag0,unknown
1500020097813,0,11,2.4169921875E-6,40,64,47,2644,5073,2312,4663,2915,2371,2176,1339,Tag0,unknown
1500020097814,0,11,2.4169921875E-6,40,64,47,2644,5073,2312,4663,2915,2371,2176,1339,Tag0,unknown
1500020097814,0,38,8.349609375E-6,40,64,47,2644,5073,2312,4663,2915,2371,2176,1339,Tag0,unknown
1500020097814,0,71,1.56005859375E-5,40,64,47,2644,5073,2312,4663,2915,2371,2176,1339,Tag0,unknown
1500020097814,0,76,1.669921875E-5,40,64,47,2644,5073,2312,4663,2915,2371,2176,1339,Tag0,unknown
1500020097815,0,73,1.6040039062500002E-5,40,64,47,2644,5073,2312,4663,2915,2371,2176,1339,Tag0,unknown
1500020097815,0,69,1.51611328125E-5,40,64,47,2644,5073,2312,4663,2915,2371,2176,1339,Tag0,unknown
1500020097829,0,42,9.228515625000002E-6,40,64,47,2644,5073,2312,4663,2915,2371,2176,1339,Tag0,unknown
1500020097843,0,10,2.197265625E-6,40,64,47,2644,5073,2312,4663,2915,2371,2176,1339,Tag0,unknown
1500020097843,0,25,5.4931640625E-6,40,64,47,2644,5073,2312,4663,2915,2371,2176,1339,Tag0,unknown
1500020097843,0,69,1.51611328125E-5,40,64,47,2644,5073,2312,4663,2915,2371,2176,1339,Tag0,unknown
1500020097844,0,74,1.6259765625E-5,40,64,47,2644,5073,2312,4663,2915,2371,2176,1339,Tag0,unknown
1500020097844,0,35,7.6904296875E-6,40,64,47,2644,5073,2312,4663,2915,2371,2176,1339,Tag0,unknown
1500020097844,0,16,3.515625E-6,40,64,47,2644,5073,2312,4663,2915,2371,2176,1339,Tag0,unknown
1500020097844,0,41,9.008789062499999E-6,40,64,47,2644,5073,2312,4663,2915,2371,2176,1339,Tag0,unknown
1500020097844,0,74,1.6259765625E-5,40,64,47,2644,5073,2312,4663,2915,2371,2176,1339,Tag0,unknown
1500020097845,0,82,1.8017578124999998E-5,40,64,47,2644,5073,2312,4663,2915,2371,2176,1339,Tag0,unknown
1500020097860,0,70,1.5380859375E-5,40,64,47,2644,5073,2312,4663,2915,2371,2176,1339,Tag0,unknown
1500020097860,0,61,1.34033203125E-5,40,64,47,2644,5073,2312,4663,2915,2371,2176,1339,Tag0,unknown
1500020097860,0,57,1.2524414062500001E-5,40,64,47,2644,5073,2312,4663,2915,2371,2176,1339,Tag0,unknown
1500020097861,0,49,1.07666015625E-5,40,64,47,2644,5073,2312,4663,2915,2371,2176,1339,Tag0,unknown
1500020097861,0,49,1.07666015625E-5,40,64,47,2644,5073,2312,4663,2915,2371,2176,1339,Tag0,unknown
1500020097861,0,53,1.1645507812500002E-5,40,64,47,2644,5073,2312,4663,2915,2371,2176,1339,Tag0,unknown
1500020097861,0,55,1.20849609375E-5,40,64,47,2644,5073,2312,4663,2915,2371,2176,1339,Tag0,unknown
1500020097861,0,65,1.42822265625E-5,40,64,47,2644,5073,2312,4663,2915,2371,2176,1339,Tag0,unknown
1500020097862,0,70,1.5380859375E-5,40,64,47,2644,5073,2312,4663,2915,2371,2176,1339,Tag0,unknown
1500020097877,0,60,1.318359375E-5,40,64,47,2644,5073,2312,4663,2915,2371,2176,1339,Tag0,unknown
1500020097877,0,53,1.1645507812500002E-5,40,64,47,2644,5073,2312,4663,2915,2371,2176,1339,Tag0,unknown
1500020097877,0,58,1.2744140625E-5,40,64,47,2644,5073,2312,4663,2915,2371,2176,1339,Tag0,unknown
1500020097877,0,58,1.2744140625E-5,40,64,47,2644,5073,2312,4663,2915,2371,2176,1339,Tag0,unknown
1500020097877,0,57,1.2524414062500001E-5,40,64,47,2644,5073,2312,4663,2915,2371,2176,1339,Tag0,unknown
1500020097878,0,65,1.42822265625E-5,40,64,47,2644,5073,2312,4663,2915,2371,2176,1339,Tag0,unknown
1500020097878,0,80,1.7578125E-5,40,64,47,2644,5073,2312,4663,2915,2371,2176,1339,Tag0,unknown
1500020097878,0,90,1.9775390625E-5,40,64,47,2644,5073,2312,4663,2915,2371,2176,1339,Tag0,unknown
1500020097878,0,96,2.109375E-5,40,64,47,2644,5073,2312,4663,2915,2371,2176,1339,Tag0,unknown
1500020097878,0,85,1.86767578125E-5,40,64,47,2644,5073,2312,4663,2915,2371,2176,1339,Tag0,unknown
1500020097879,0,81,1.77978515625E-5,40,64,47,2644,5073,2312,4663,2915,2371,2176,1339,Tag0,unknown
1500020097895,0,73,1.6040039062500002E-5,40,64,47,2644,5073,2312,4663,2915,2371,2176,1339,Tag0,unknown
1500020097910,0,57,1.2524414062500001E-5,40,64,47,2644,5073,2312,4663,2915,2371,2176,1339,Tag0,unknown
1500020097911,0,52,1.142578125E-5,40,64,47,2644,5073,2312,4663,2915,2371,2176,1339,Tag0,unknown
1500020097911,0,55,1.20849609375E-5,40,64,47,2644,5073,2312,4663,2915,2371,2176,1339,Tag0,unknown
1500020097912,0,49,1.07666015625E-5,40,64,47,2644,5073,2312,4663,2915,2371,2176,1339,Tag0,unknown
1500020097912,0,36,7.91015625E-6,40,64,47,2644,5073,2312,4663,2915,2371,2176,1339,Tag0,unknown
1500020097912,0,35,7.6904296875E-6,40,64,47,2644,5073,2312,4663,2915,2371,2176,1339,Tag0,unknown
1500020097912,0,50,1.0986328125E-5,40,64,47,2644,5073,2312,4663,2915,2371,2176,1339,Tag0,unknown
1500020097913,0,56,1.23046875E-5,40,64,47,2644,5073,2312,4663,2915,2371,2176,1339,Tag0,unknown
1500020097913,0,59,1.29638671875E-5,40,64,47,2644,5073,2312,4663,2915,2371,2176,1339,Tag0,unknown
1500020097913,0,71,1.56005859375E-5,40,64,47,2644,5073,2312,4663,2915,2371,2176,1339,Tag0,unknown
1500020097914,0,86,1.8896484375000003E-5,40,64,47,2644,5073,2312,4663,2915,2371,2176,1339,Tag0,unknown
1500020097914,0,88,1.93359375E-5,40,64,47,2644,5073,2312,4663,2915,2371,2176,1339,Tag0,unknown
1500020097914,0,88,1.93359375E-5,40,64,47,2644,5073,2312,4663,2915,2371,2176,1339,Tag0,unknown
1500020097915,0,89,1.95556640625E-5,40,64,47,2644,5073,2312,4663,2915,2371,2176,1339,Tag0,unknown
1500020097915,0,82,1.8017578124999998E-5,40,64,47,2644,5073,2312,4663,2915,2371,2176,1339,Tag0,unknown
1500020097915,0,72,1.58203125E-5,40,64,47,2644,5073,2312,4663,2915,2371,2176,1339,Tag0,unknown
1500020097915,0,73,1.6040039062500002E-5,40,64,47,2644,5073,2312,4663,2915,2371,2176,1339,Tag0,unknown
1500020097916,0,71,1.56005859375E-5,40,64,47,2644,5073,2312,4663,2915,2371,2176,1339,Tag0,unknown
1500020097916,0,64,1.40625E-5,40,64,47,2644,5073,2312,4663,2915,2371,2176,1339,Tag0,unknown
1500020097933,0,55,1.20849609375E-5,40,64,47,2644,5073,2312,4663,2915,2371,2176,1339,Tag0,unknown
1500020097944,0,60,1.318359375E-5,40,64,47,2644,5073,2312,4663,2915,2371,2176,1339,Tag0,unknown
1500020097945,0,75,1.64794921875E-5,40,64,47,2644,5073,2312,4663,2915,2371,2176,1339,Tag0,unknown
1500020097945,0,100,2.197265625E-5,40,64,47,2644,5073,2312,4663,2915,2371,2176,1339,Tag0,unknown
1500020097945,0,102,2.2412109374999998E-5,40,64,47,2644,5073,2312,4663,2915,2371,2176,1339,Tag0,unknown
1500020097946,0,89,1.95556640625E-5,40,64,47,2644,5073,2312,4663,2915,2371,2176,1339,Tag0,unknown
1500020097946,0,76,1.669921875E-5,40,64,47,2644,5073,2312,4663,2915,2371,2176,1339,Tag0,unknown
1500020097946,0,82,1.8017578124999998E-5,40,64,47,2644,5073,2312,4663,2915,2371,2176,1339,Tag0,unknown
1500020097946,0,112,2.4609375E-5,40,64,47,2644,5073,2312,4663,2915,2371,2176,1339,Tag0,unknown
1500020097947,0,-112,-2.4609375E-5,40,64,47,2644,5073,2312,4663,2915,2371,2176,1339,Tag0,unknown
1500020097947,0,-103,-2.26318359375E-5,40,64,47,2644,5073,2312,4663,2915,2371,2176,1339,Tag0,unknown
1500020097947,0,-121,-2.6586914062500003E-5,40,64,47,2644,5073,2312,4663,2915,2371,2176,1339,Tag0,unknown
1500020097948,0,116,2.548828125E-5,40,64,47,2644,5073,2312,4663,2915,2371,2176,1339,Tag0,unknown
1500020097948,0,108,2.3730468750000002E-5,40,64,47,2644,5073,2312,4663,2915,2371,2176,1339,Tag0,unknown
1500020097948,0,104,2.28515625E-5,40,64,47,2644,5073,2312,4663,2915,2371,2176,1339,Tag0,unknown
1500020097948,0,97,2.13134765625E-5,40,64,47,2644,5073,2312,4663,2915,2371,2176,1339,Tag0,unknown
1500020097949,0,82,1.8017578124999998E-5,40,64,47,2644,5073,2312,4663,2915,2371,2176,1339,Tag0,unknown
1500020097949,0,70,1.5380859375E-5,40,64,47,2644,5073,2312,4663,2915,2371,2176,1339,Tag0,unknown
1500020097949,0,64,1.40625E-5,40,64,47,2644,5073,2312,4663,2915,2371,2176,1339,Tag0,unknown
1500020097949,0,70,1.5380859375E-5,40,64,47,2644,5073,2312,4663,2915,2371,2176,1339,Tag0,unknown
1500020097971,0,71,1.56005859375E-5,40,64,47,2644,5073,2312,4663,2915,2371,2176,1339,Tag0,unknown
1500020097978,0,57,1.2524414062500001E-5,40,64,47,2644,5073,2312,4663,2915,2371,2176,1339,Tag0,unknown
1500020097978,0,43,9.448242187500001E-6,40,64,47,2644,5073,2312,4663,2915,2371,2176,1339,Tag0,unknown
1500020097978,0,40,8.7890625E-6,40,64,47,2644,5073,2312,4663,2915,2371,2176,1339,Tag0,unknown
1500020097979,0,51,1.1206054687499999E-5,40,64,47,2644,5073,2312,4663,2915,2371,2176,1339,Tag0,unknown
1500020097979,0,71,1.56005859375E-5,40,64,47,2644,5073,2312,4663,2915,2371,2176,1339,Tag0,unknown
1500020097979,0,91,1.99951171875E-5,40,64,47,2644,5073,2312,4663,2915,2371,2176,1339,Tag0,unknown
1500020097980,0,98,2.1533203125E-5,40,64,47,2644,5073,2312,4663,2915,2371,2176,1339,Tag0,unknown
1500020097980,0,83,1.82373046875E-5,40,64,47,2644,5073,2312,4663,2915,2371,2176,1339,Tag0,unknown
1500020097980,0,72,1.58203125E-5,40,64,47,2644,5073,2312,4663,2915,2371,2176,1339,Tag0,unknown
1500020097980,0,74,1.6259765625E-5,40,64,47,2644,5073,2312,4663,2915,2371,2176,1339,Tag0,unknown
1500020097981,0,70,1.5380859375E-5,40,64,47,2644,5073,2312,4663,2915,2371,2176,1339,Tag0,unknown
1500020097981,0,80,1.7578125E-5,40,64,47,2644,5073,2312,4663,2915,2371,2176,1339,Tag0,unknown
1500020097981,0,98,2.1533203125E-5,40,64,47,2644,5073,2312,4663,2915,2371,2176,1339,Tag0,unknown
1500020097982,0,101,2.2192382812500002E-5,40,64,47,2644,5073,2312,4663,2915,2371,2176,1339,Tag0,unknown
1500020097982,0,108,2.3730468750000002E-5,40,64,47,2644,5073,2312,4663,2915,2371,2176,1339,Tag0,unknown
1500020097982,0,121,2.6586914062500003E-5,40,64,47,2644,5073,2312,4663,2915,2371,2176,1339,Tag0,unknown
1500020097982,0,116,2.548828125E-5,40,64,47,2644,5073,2312,4663,2915,2371,2176,1339,Tag0,unknown
1500020097983,0,97,2.13134765625E-5,40,64,47,2644,5073,2312,4663,2915,2371,2176,1339,Tag0,unknown
1500020097983,0,86,1.8896484375000003E-5,40,64,47,2644,5073,2312,4663,2915,2371,2176,1339,Tag0,unknown
1500020098009,0,90,1.9775390625E-5,40,64,47,2644,5073,2312,4663,2915,2371,2176,1339,Tag0,unknown
1500020098012,0,84,1.8457031250000004E-5,40,64,47,2644,5073,2312,4663,2915,2371,2176,1339,Tag0,unknown
1500020098012,0,86,1.8896484375000003E-5,40,64,47,2644,5073,2312,4663,2915,2371,2176,1339,Tag0,unknown
1500020098012,0,89,1.95556640625E-5,40,64,47,2644,5073,2312,4663,2915,2371,2176,1339,Tag0,unknown
1500020098013,0,99,2.1752929687500003E-5,40,64,47,2644,5073,2312,4663,2915,2371,2176,1339,Tag0,unknown
1500020098013,0,108,2.3730468750000002E-5,40,64,47,2644,5073,2312,4663,2915,2371,2176,1339,Tag0,unknown
1500020098013,0,100,2.197265625E-5,40,64,47,2644,5073,2312,4663,2915,2371,2176,1339,Tag0,unknown
1500020098013,0,74,1.6259765625E-5,40,64,47,2644,5073,2312,4663,2915,2371,2176,1339,Tag0,unknown
1500020098014,0,68,1.4941406250000001E-5,40,64,47,2644,5073,2312,4663,2915,2371,2176,1339,Tag0,unknown
1500020098014,0,71,1.56005859375E-5,40,64,47,2644,5073,2312,4663,2915,2371,2176,1339,Tag0,unknown
1500020098029,0,52,1.142578125E-5,40,64,47,2644,5073,2312,4663,2915,2371,2176,1339,Tag0,unknown
1500020098029,0,34,7.4707031250000005E-6,40,64,47,2644,5073,2312,4663,2915,2371,2176,1339,Tag0,unknown
1500020098029,0,55,1.20849609375E-5,40,64,47,2644,5073,2312,4663,2915,2371,2176,1339,Tag0,unknown
1500020098030,0,89,1.95556640625E-5,40,64,47,2644,5073,2312,4663,2915,2371,2176,1339,Tag0,unknown
1500020098030,0,86,1.8896484375000003E-5,40,64,47,2644,5073,2312,4663,2915,2371,2176,1339,Tag0,unknown
1500020098030,0,58,1.2744140625E-5,40,64,47,2644,5073,2312,4663,2915,2371,2176,1339,Tag0,unknown
1500020098030,0,49,1.07666015625E-5,40,64,47,2644,5073,2312,4663,2915,2371,2176,1339,Tag0,unknown
1500020098031,0,48,1.0546875E-5,40,64,47,2644,5073,2312,4663,2915,2371,2176,1339,Tag0,unknown
1500020098031,0,57,1.2524414062500001E-5,40,64,47,2644,5073,2312,4663,2915,2371,2176,1339,Tag0,unknown
1500020098031,0,85,1.86767578125E-5,40,64,47,2644,5073,2312,4663,2915,2371,2176,1339,Tag0,unknown
1500020098045,0,96,2.109375E-5,40,64,47,2644,5073,2312,4663,2915,2371,2176,1339,Tag0,unknown
1500020098046,0,80,1.7578125E-5,40,64,47,2644,5073,2312,4663,2915,2371,2176,1339,Tag0,unknown
1500020098046,0,52,1.142578125E-5,40,64,47,2644,5073,2312,4663,2915,2371,2176,1339,Tag0,unknown
1500020098046,0,39,8.5693359375E-6,40,64,47,2644,5073,2312,4663,2915,2371,2176,1339,Tag0,unknown
1500020098046,0,38,8.349609375E-6,40,64,47,2644,5073,2312,4663,2915,2371,2176,1339,Tag0,unknown
1500020098047,0,43,9.448242187500001E-6,40,64,47,2644,5073,2312,4663,2915,2371,2176,1339,Tag0,unknown
1500020098047,0,49,1.07666015625E-5,40,64,47,2644,5073,2312,4663,2915,2371,2176,1339,Tag0,unknown
1500020098047,0,42,9.228515625000002E-6,40,64,47,2644,5073,2312,4663,2915,2371,2176,1339,Tag0,unknown
1500020098048,0,32,7.03125E-6,40,64,47,2644,5073,2312,4663,2915,2371,2176,1339,Tag0,unknown
1500020098048,0,34,7.4707031250000005E-6,40,64,47,2644,5073,2312,4663,2915,2371,2176,1339,Tag0,unknown
1500020098078,0,43,9.448242187500001E-6,40,64,47,2644,5073,2312,4663,2915,2371,2176,1339,Tag0,unknown
1500020098096,0,50,1.0986328125E-5,40,64,47,2644,5073,2312,4663,2915,2371,2176,1339,Tag0,unknown
1500020098096,0,32,7.03125E-6,40,64,47,2644,5073,2312,4663,2915,2371,2176,1339,Tag0,unknown
1500020098097,0,21,4.614257812500001E-6,40,64,47,2644,5073,2312,4663,2915,2371,2176,1339,Tag0,unknown
1500020098097,0,33,7.2509765625E-6,40,64,47,2644,5073,2312,4663,2915,2371,2176,1339,Tag0,unknown
1500020098097,0,48,1.0546875E-5,40,64,47,2644,5073,2312,4663,2915,2371,2176,1339,Tag0,unknown
1500020098098,0,67,1.4721679687500002E-5,40,64,47,2644,5073,2312,4663,2915,2371,2176,1339,Tag0,unknown
1500020098098,0,76,1.669921875E-5,40,64,47,2644,5073,2312,4663,2915,2371,2176,1339,Tag0,unknown
1500020098098,0,68,1.4941406250000001E-5,40,64,47,2644,5073,2312,4663,2915,2371,2176,1339,Tag0,unknown
1500020098099,0,57,1.2524414062500001E-5,40,64,47,2644,5073,2312,4663,2915,2371,2176,1339,Tag0,unknown
1500020098099,0,56,1.23046875E-5,40,64,47,2644,5073,2312,4663,2915,2371,2176,1339,Tag0,unknown
1500020098099,0,57,1.2524414062500001E-5,40,64,47,2644,5073,2312,4663,2915,2371,2176,1339,Tag0,unknown
1500020098099,0,66,1.4501953125E-5,40,64,47,2644,5073,2312,4663,2915,2371,2176,1339,Tag0,unknown
1500020098100,0,69,1.51611328125E-5,40,64,47,2644,5073,2312,4663,2915,2371,2176,1339,Tag0,unknown
1500020098100,0,45,9.8876953125E-6,40,64,47,2644,5073,2312,4663,2915,2371,2176,1339,Tag0,unknown
1500020098100,0,17,3.7353515625000003E-6,40,64,47,2644,5073,2312,4663,2915,2371,2176,1339,Tag0,unknown
1500020098100,0,11,2.4169921875E-6,40,64,47,2644,5073,2312,4663,2915,2371,2176,1339,Tag0,unknown
1500020098101,0,24,5.2734375E-6,40,64,47,2644,5073,2312,4663,2915,2371,2176,1339,Tag0,unknown
1500020098101,0,27,5.9326171875000005E-6,40,64,47,2644,5073,2312,4663,2915,2371,2176,1339,Tag0,unknown
1500020098101,0,35,7.6904296875E-6,40,64,47,2644,5073,2312,4663,2915,2371,2176,1339,Tag0,unknown
1500020098114,0,44,9.66796875E-6,40,64,47,2644,5073,2312,4663,2915,2371,2176,1339,Tag0,unknown
1500020098130,0,54,1.1865234375000001E-5,40,64,47,2644,5073,2312,4663,2915,2371,2176,1339,Tag0,unknown
1500020098130,0,56,1.23046875E-5,40,64,47,2644,5073,2312,4663,2915,2371,2176,1339,Tag0,unknown
1500020098130,0,49,1.07666015625E-5,40,64,47,2644,5073,2312,4663,2915,2371,2176,1339,Tag0,unknown
1500020098130,0,36,7.91015625E-6,40,64,47,2644,5073,2312,4663,2915,2371,2176,1339,Tag0,unknown
1500020098131,0,48,1.0546875E-5,40,64,47,2644,5073,2312,4663,2915,2371,2176,1339,Tag0,unknown
1500020098131,0,71,1.56005859375E-5,40,64,47,2644,5073,2312,4663,2915,2371,2176,1339,Tag0,unknown
1500020098131,0,82,1.8017578124999998E-5,40,64,47,2644,5073,2312,4663,2915,2371,2176,1339,Tag0,unknown
1500020098132,0,81,1.77978515625E-5,40,64,47,2644,5073,2312,4663,2915,2371,2176,1339,Tag0,unknown
1500020098132,0,74,1.6259765625E-5,40,64,47,2644,5073,2312,4663,2915,2371,2176,1339,Tag0,unknown
1500020098132,0,58,1.2744140625E-5,40,64,47,2644,5073,2312,4663,2915,2371,2176,1339,Tag0,unknown
1500020098132,0,44,9.66796875E-6,40,64,47,2644,5073,2312,4663,2915,2371,2176,1339,Tag0,unknown
1500020098133,0,37,8.1298828125E-6,40,64,47,2644,5073,2312,4663,2915,2371,2176,1339,Tag0,unknown
1500020098133,0,53,1.1645507812500002E-5,40,64,47,2644,5073,2312,4663,2915,2371,2176,1339,Tag0,unknown
1500020098133,0,81,1.77978515625E-5,40,64,47,2644,5073,2312,4663,2915,2371,2176,1339,Tag0,unknown
1500020098133,0,105,2.30712890625E-5,40,64,47,2644,5073,2312,4663,2915,2371,2176,1339,Tag0,unknown
1500020098134,0,122,2.6806640625E-5,40,64,47,2644,5073,2312,4663,2915,2371,2176,1339,Tag0,unknown
1500020098134,0,-128,-2.8125E-5,40,64,47,2644,5073,2312,4663,2915,2371,2176,1339,Tag0,unknown
1500020098134,0,-123,-2.70263671875E-5,40,64,47,2644,5073,2312,4663,2915,2371,2176,1339,Tag0,unknown
1500020098134,0,-123,-2.70263671875E-5,40,64,47,2644,5073,2312,4663,2915,2371,2176,1339,Tag0,unknown
1500020098150,0,114,2.5048828125000003E-5,40,64,47,2644,5073,2312,4663,2915,2371,2176,1339,Tag0,unknown
1500020098150,0,90,1.9775390625E-5,40,64,47,2644,5073,2312,4663,2915,2371,2176,1339,Tag0,unknown
1500020098163,0,85,1.86767578125E-5,40,64,47,2644,5073,2312,4663,2915,2371,2176,1339,Tag0,unknown
1500020098164,0,81,1.77978515625E-5,40,64,47,2644,5073,2312,4663,2915,2371,2176,1339,Tag0,unknown
1500020098164,0,71,1.56005859375E-5,40,64,47,2644,5073,2312,4663,2915,2371,2176,1339,Tag0,unknown
1500020098164,0,58,1.2744140625E-5,40,64,47,2644,5073,2312,4663,2915,2371,2176,1339,Tag0,unknown
1500020098165,0,53,1.1645507812500002E-5,40,64,47,2644,5073,2312,4663,2915,2371,2176,1339,Tag0,unknown
1500020098165,0,49,1.07666015625E-5,40,64,47,2644,5073,2312,4663,2915,2371,2176,1339,Tag0,unknown
1500020098165,0,44,9.66796875E-6,40,64,47,2644,5073,2312,4663,2915,2371,2176,1339,Tag0,unknown
1500020098165,0,61,1.34033203125E-5,40,64,47,2644,5073,2312,4663,2915,2371,2176,1339,Tag0,unknown
1500020098166,0,77,1.69189453125E-5,40,64,47,2644,5073,2312,4663,2915,2371,2176,1339,Tag0,unknown
1500020098166,0,81,1.77978515625E-5,40,64,47,2644,5073,2312,4663,2915,2371,2176,1339,Tag0,unknown
1500020098166,0,69,1.51611328125E-5,40,64,47,2644,5073,2312,4663,2915,2371,2176,1339,Tag0,unknown
1500020098166,0,70,1.5380859375E-5,40,64,47,2644,5073,2312,4663,2915,2371,2176,1339,Tag0,unknown
1500020098167,0,73,1.6040039062500002E-5,40,64,47,2644,5073,2312,4663,2915,2371,2176,1339,Tag0,unknown
1500020098167,0,69,1.51611328125E-5,40,64,47,2644,5073,2312,4663,2915,2371,2176,1339,Tag0,unknown
1500020098167,0,53,1.1645507812500002E-5,40,64,47,2644,5073,2312,4663,2915,2371,2176,1339,Tag0,unknown
1500020098168,0,49,1.07666015625E-5,40,64,47,2644,5073,2312,4663,2915,2371,2176,1339,Tag0,unknown
1500020098168,0,54,1.1865234375000001E-5,40,64,47,2644,5073,2312,4663,2915,2371,2176,1339,Tag0,unknown
1500020098168,0,67,1.4721679687500002E-5,40,64,47,2644,5073,2312,4663,2915,2371,2176,1339,Tag0,unknown
1500020098187,0,84,1.8457031250000004E-5,40,64,47,2644,5073,2312,4663,2915,2371,2176,1339,Tag0,unknown
1500020098197,0,102,2.2412109374999998E-5,40,64,47,2644,5073,2312,4663,2915,2371,2176,1339,Tag0,unknown
1500020098197,0,104,2.28515625E-5,40,64,47,2644,5073,2312,4663,2915,2371,2176,1339,Tag0,unknown
1500020098197,0,101,2.2192382812500002E-5,40,64,47,2644,5073,2312,4663,2915,2371,2176,1339,Tag0,unknown
1500020098198,0,102,2.2412109374999998E-5,40,64,47,2644,5073,2312,4663,2915,2371,2176,1339,Tag0,unknown
1500020098198,0,90,1.9775390625E-5,40,64,47,2644,5073,2312,4663,2915,2371,2176,1339,Tag0,unknown
1500020098198,0,65,1.42822265625E-5,40,64,47,2644,5073,2312,4663,2915,2371,2176,1339,Tag0,unknown
1500020098198,0,54,1.1865234375000001E-5,40,64,47,2644,5073,2312,4663,2915,2371,2176,1339,Tag0,unknown
1500020098199,0,65,1.42822265625E-5,40,64,47,2644,5073,2312,4663,2915,2371,2176,1339,Tag0,unknown
1500020098199,0,66,1.4501953125E-5,40,64,47,2644,5073,2312,4663,2915,2371,2176,1339,Tag0,unknown
1500020098199,0,60,1.318359375E-5,40,64,47,2644,5073,2312,4663,2915,2371,2176,1339,Tag0,unknown
1500020098199,0,75,1.64794921875E-5,40,64,47,2644,5073,2312,4663,2915,2371,2176,1339,Tag0,unknown
1500020098200,0,92,2.021484375E-5,40,64,47,2644,5073,2312,4663,2915,2371,2176,1339,Tag0,unknown
1500020098200,0,75,1.64794921875E-5,40,64,47,2644,5073,2312,4663,2915,2371,2176,1339,Tag0,unknown
1500020098200,0,48,1.0546875E-5,40,64,47,2644,5073,2312,4663,2915,2371,2176,1339,Tag0,unknown
1500020098201,0,35,7.6904296875E-6,40,64,47,2644,5073,2312,4663,2915,2371,2176,1339,Tag0,unknown
1500020098201,0,34,7.4707031250000005E-6,40,64,47,2644,5073,2312,4663,2915,2371,2176,1339,Tag0,unknown
1500020098201,0,24,5.2734375E-6,40,64,47,2644,5073,2312,4663,2915,2371,2176,1339,Tag0,unknown
1500020098201,0,28,6.15234375E-6,40,64,47,2644,5073,2312,4663,2915,2371,2176,1339,Tag0,unknown
1500020098202,0,53,1.1645507812500002E-5,40,64,47,2644,5073,2312,4663,2915,2371,2176,1339,Tag0,unknown
1500020098225,0,67,1.4721679687500002E-5,40,64,47,2644,5073,2312,4663,2915,2371,2176,1339,Tag0,unknown
1500020098235,0,69,1.51611328125E-5,40,64,47,2644,5073,2312,4663,2915,2371,2176,1339,Tag0,unknown
1500020098236,0,66,1.4501953125E-5,40,64,47,2644,5073,2312,4663,2915,2371,2176,1339,Tag0,unknown
1500020098237,0,56,1.23046875E-5,40,64,47,2644,5073,2312,4663,2915,2371,2176,1339,Tag0,unknown
1500020098238,0,58,1.2744140625E-5,40,64,47,2644,5073,2312,4663,2915,2371,2176,1339,Tag0,unknown
1500020098239,0,83,1.82373046875E-5,40,64,47,2644,5073,2312,4663,2915,2371,2176,1339,Tag0,unknown
1500020098240,0,99,2.1752929687500003E-5,40,64,47,2644,5073,2312,4663,2915,2371,2176,1339,Tag0,unknown
1500020098241,0,76,1.669921875E-5,40,64,47,2644,5073,2312,4663,2915,2371,2176,1339,Tag0,unknown
1500020098243,0,44,9.66796875E-6,40,64,47,2644,5073,2312,4663,2915,2371,2176,1339,Tag0,unknown
1500020098244,0,40,8.7890625E-6,40,64,47,2644,5073,2312,4663,2915,2371,2176,1339,Tag0,unknown
1500020098246,0,28,6.15234375E-6,40,64,47,2644,5073,2312,4663,2915,2371,2176,1339,Tag0,unknown
1500020098247,0,18,3.955078125E-6,40,64,47,2644,5073,2312,4663,2915,2371,2176,1339,Tag0,unknown
1500020098248,0,29,6.3720703125E-6,40,64,47,2644,5073,2312,4663,2915,2371,2176,1339,Tag0,unknown
1500020098249,0,49,1.07666015625E-5,40,64,47,2644,5073,2312,4663,2915,2371,2176,1339,Tag0,unknown
1500020098250,0,56,1.23046875E-5,40,64,47,2644,5073,2312,4663,2915,2371,2176,1339,Tag0,unknown
1500020098251,0,51,1.1206054687499999E-5,40,64,47,2644,5073,2312,4663,2915,2371,2176,1339,Tag0,unknown
1500020098252,0,34,7.4707031250000005E-6,40,64,47,2644,5073,2312,4663,2915,2371,2176,1339,Tag0,unknown
1500020098253,0,34,7.4707031250000005E-6,40,64,47,2644,5073,2312,4663,2915,2371,2176,1339,Tag0,unknown
1500020098254,0,66,1.4501953125E-5,40,64,47,2644,5073,2312,4663,2915,2371,2176,1339,Tag0,unknown
1500020098255,0,99,2.1752929687500003E-5,40,64,47,2644,5073,2312,4663,2915,2371,2176,1339,Tag0,unknown
1500020098304,0,100,2.197265625E-5,40,64,47,2644,5073,2312,4663,2915,2371,2176,1339,Tag0,unknown
1500020098318,0,83,1.82373046875E-5,40,64,47,2644,5073,2312,4663,2915,2371,2176,1339,Tag0,unknown
1500020098318,0,42,9.228515625000002E-6,40,64,47,2644,5073,2312,4663,2915,2371,2176,1339,Tag0,unknown
1500020098319,0,5,1.0986328125E-6,40,64,47,2644,5073,2312,4663,2915,2371,2176,1339,Tag0,unknown
1500020098320,0,2,4.39453125E-7,48,67,47,7405,4679,1189,878,1007,1806,1187,800,Tag0,unknown
1500020098371,0,17,3.7353515625000003E-6,48,67,47,7405,4679,1189,878,1007,1806,1187,800,Tag0,unknown
1500020098385,0,26,5.712890625E-6,48,67,47,7405,4679,1189,878,1007,1806,1187,800,Tag0,unknown
1500020098386,0,35,7.6904296875E-6,48,67,47,7405,4679,1189,878,1007,1806,1187,800,Tag0,unknown
1500020098387,0,40,8.7890625E-6,48,67,47,7405,4679,1189,878,1007,1806,1187,800,Tag0,unknown
1500020098387,0,50,1.0986328125E-5,48,67,47,7405,4679,1189,878,1007,1806,1187,800,Tag0,unknown
1500020098388,0,48,1.0546875E-5,48,67,47,7405,4679,1189,878,1007,1806,1187,800,Tag0,unknown
1500020098389,0,38,8.349609375E-6,48,67,47,7405,4679,1189,878,1007,1806,1187,800,Tag0,unknown
1500020098390,0,50,1.0986328125E-5,48,67,47,7405,4679,1189,878,1007,1806,1187,800,Tag0,unknown
1500020098390,0,86,1.8896484375000003E-5,48,67,47,7405,4679,1189,878,1007,1806,1187,800,Tag0,unknown
1500020098392,0,104,2.28515625E-5,48,67,47,7405,4679,1189,878,1007,1806,1187,800,Tag0,unknown
1500020098431,0,91,1.99951171875E-5,48,67,47,7405,4679,1189,878,1007,1806,1187,800,Tag0,unknown
1500020098454,0,76,1.669921875E-5,48,67,47,7405,4679,1189,878,1007,1806,1187,800,Tag0,unknown
1500020098455,0,68,1.4941406250000001E-5,48,67,47,7405,4679,1189,878,1007,1806,1187,800,Tag0,unknown
1500020098455,0,69,1.51611328125E-5,48,67,47,7405,4679,1189,878,1007,1806,1187,800,Tag0,unknown
1500020098456,0,70,1.5380859375E-5,48,67,47,7405,4679,1189,878,1007,1806,1187,800,Tag0,unknown
1500020098457,0,58,1.2744140625E-5,48,67,47,7405,4679,1189,878,1007,1806,1187,800,Tag0,unknown
1500020098458,0,52,1.142578125E-5,48,67,47,7405,4679,1189,878,1007,1806,1187,800,Tag0,unknown
1500020098458,0,57,1.2524414062500001E-5,48,67,47,7405,4679,1189,878,1007,1806,1187,800,Tag0,unknown
1500020098459,0,70,1.5380859375E-5,48,67,47,7405,4679,1189,878,1007,1806,1187,800,Tag0,unknown
1500020098459,0,80,1.7578125E-5,48,67,47,7405,4679,1189,878,1007,1806,1187,800,Tag0,unknown
1500020098460,0,76,1.669921875E-5,48,67,47,7405,4679,1189,878,1007,1806,1187,800,Tag0,unknown
1500020098461,0,60,1.318359375E-5,48,67,47,7405,4679,1189,878,1007,1806,1187,800,Tag0,unknown
1500020098461,0,49,1.07666015625E-5,48,67,47,7405,4679,1189,878,1007,1806,1187,800,Tag0,unknown
1500020098462,0,44,9.66796875E-6,48,67,47,7405,4679,1189,878,1007,1806,1187,800,Tag0,unknown
1500020098463,0,38,8.349609375E-6,48,67,47,7405,4679,1189,878,1007,1806,1187,800,Tag0,unknown
1500020098463,0,20,4.39453125E-6,48,67,47,7405,4679,1189,878,1007,1806,1187,800,Tag0,unknown
1500020098465,0,5,1.0986328125E-6,48,67,47,7405,4679,1189,878,1007,1806,1187,800,Tag0,unknown
1500020098466,0,7,1.5380859375E-6,48,67,47,7405,4679,1189,878,1007,1806,1187,800,Tag0,unknown
1500020098466,0,24,5.2734375E-6,48,67,47,7405,4679,1189,878,1007,1806,1187,800,Tag0,unknown
1500020098467,0,24,5.2734375E-6,48,67,47,7405,4679,1189,878,1007,1806,1187,800,Tag0,unknown
1500020098467,0,22,4.833984375E-6,48,67,47,7405,4679,1189,878,1007,1806,1187,800,Tag0,unknown
1500020098468,0,51,1.1206054687499999E-5,48,67,47,7405,4679,1189,878,1007,1806,1187,800,Tag0,unknown
1500020098468,0,69,1.51611328125E-5,48,67,47,7405,4679,1189,878,1007,1806,1187,800,Tag0,unknown
1500020098469,0,60,1.318359375E-5,48,67,47,7405,4679,1189,878,1007,1806,1187,800,Tag0,unknown
1500020098469,0,39,8.5693359375E-6,48,67,47,7405,4679,1189,878,1007,1806,1187,800,Tag0,unknown
1500020098469,0,48,1.0546875E-5,48,67,47,7405,4679,1189,878,1007,1806,1187,800,Tag0,unknown
1500020098470,0,71,1.56005859375E-5,48,67,47,7405,4679,1189,878,1007,1806,1187,800,Tag0,unknown
1500020098470,0,72,1.58203125E-5,48,67,47,7405,4679,1189,878,1007,1806,1187,800,Tag0,unknown
1500020098470,0,49,1.07666015625E-5,48,67,47,7405,4679,1189,878,1007,1806,1187,800,Tag0,unknown
1500020098471,0,19,4.1748046875E-6,48,67,47,7405,4679,1189,878,1007,1806,1187,800,Tag0,unknown
1500020098472,0,-257,-5.64697265625E-5,48,67,47,7405,4679,1189,878,1007,1806,1187,800,Tag0,unknown
1500020098473,0,-278,-6.108398437500001E-5,48,67,47,7405,4679,1189,878,1007,1806,1187,800,Tag0,unknown
1500020098473,0,-275,-6.04248046875E-5,48,67,47,7405,4679,1189,878,1007,1806,1187,800,Tag0,unknown
1500020098474,0,12,2.63671875E-6,48,67,47,7405,4679,1189,878,1007,1806,1187,800,Tag0,unknown
1500020098474,0,23,5.0537109375E-6,48,67,47,7405,4679,1189,878,1007,1806,1187,800,Tag0,unknown
1500020098474,0,9,1.9775390625E-6,48,67,47,7405,4679,1189,878,1007,1806,1187,800,Tag0,unknown
1500020098475,0,0,0.0,48,67,47,7405,4679,1189,878,1007,1806,1187,800,Tag0,unknown
1500020098475,0,8,1.7578125E-6,48,67,47,7405,4679,1189,878,1007,1806,1187,800,Tag0,unknown
1500020098475,0,37,8.1298828125E-6,48,67,47,7405,4679,1189,878,1007,1806,1187,800,Tag0,unknown
1500020098476,0,55,1.20849609375E-5,48,67,47,7405,4679,1189,878,1007,1806,1187,800,Tag0,unknown
1500020098476,0,59,1.29638671875E-5,48,67,47,7405,4679,1189,878,1007,1806,1187,800,Tag0,unknown
1500020098476,0,64,1.40625E-5,48,67,47,7405,4679,1189,878,1007,1806,1187,800,Tag0,unknown
1500020098477,0,67,1.4721679687500002E-5,48,67,47,7405,4679,1189,878,1007,1806,1187,800,Tag0,unknown
1500020098478,0,57,1.2524414062500001E-5,48,67,47,7405,4679,1189,878,1007,1806,1187,800,Tag0,unknown
1500020098478,0,49,1.07666015625E-5,48,67,47,7405,4679,1189,878,1007,1806,1187,800,Tag0,unknown
1500020098478,0,58,1.2744140625E-5,48,67,47,7405,4679,1189,878,1007,1806,1187,800,Tag0,unknown
1500020098479,0,74,1.6259765625E-5,48,67,47,7405,4679,1189,878,1007,1806,1187,800,Tag0,unknown
1500020098479,0,72,1.58203125E-5,48,67,47,7405,4679,1189,878,1007,1806,1187,800,Tag0,unknown
1500020098479,0,80,1.7578125E-5,48,67,47,7405,4679,1189,878,1007,1806,1187,800,Tag0,unknown
1500020098480,0,103,2.26318359375E-5,48,67,47,7405,4679,1189,878,1007,1806,1187,800,Tag0,unknown
1500020098480,0,122,2.6806640625E-5,48,67,47,7405,4679,1189,878,1007,1806,1187,800,Tag0,unknown
1500020098480,0,118,2.5927734375E-5,48,67,47,7405,4679,1189,878,1007,1806,1187,800,Tag0,unknown
1500020098481,0,104,2.28515625E-5,48,67,47,7405,4679,1189,878,1007,1806,1187,800,Tag0,unknown
1500020098482,0,100,2.197265625E-5,48,67,47,7405,4679,1189,878,1007,1806,1187,800,Tag0,unknown
1500020098483,0,97,2.13134765625E-5,48,67,47,7405,4679,1189,878,1007,1806,1187,800,Tag0,unknown
1500020098484,0,81,1.77978515625E-5,48,67,47,7405,4679,1189,878,1007,1806,1187,800,Tag0,unknown
1500020098484,0,66,1.4501953125E-5,48,67,47,7405,4679,1189,878,1007,1806,1187,800,Tag0,unknown
1500020098484,0,69,1.51611328125E-5,48,67,47,7405,4679,1189,878,1007,1806,1187,800,Tag0,unknown
1500020098485,0,87,1.91162109375E-5,48,67,47,7405,4679,1189,878,1007,1806,1187,800,Tag0,unknown
1500020098486,0,86,1.8896484375000003E-5,48,67,47,7405,4679,1189,878,1007,1806,1187,800,Tag0,unknown
1500020098487,0,75,1.64794921875E-5,48,67,47,7405,4679,1189,878,1007,1806,1187,800,Tag0,unknown
1500020098488,0,88,1.93359375E-5,48,67,47,7405,4679,1189,878,1007,1806,1187,800,Tag0,unknown
1500020098488,0,103,2.26318359375E-5,48,67,47,7405,4679,1189,878,1007,1806,1187,800,Tag0,unknown
1500020098489,0,105,2.30712890625E-5,48,67,47,7405,4679,1189,878,1007,1806,1187,800,Tag0,unknown
1500020098489,0,99,2.1752929687500003E-5,48,67,47,7405,4679,1189,878,1007,1806,1187,800,Tag0,unknown
1500020098490,0,102,2.2412109374999998E-5,48,67,47,7405,4679,1189,878,1007,1806,1187,800,Tag0,unknown
1500020098491,0,113,2.48291015625E-5,48,67,47,7405,4679,1189,878,1007,1806,1187,800,Tag0,unknown
1500020098491,0,117,2.5708007812499998E-5,48,67,47,7405,4679,1189,878,1007,1806,1187,800,Tag0,unknown
1500020098492,0,102,2.2412109374999998E-5,48,67,47,7405,4679,1189,878,1007,1806,1187,800,Tag0,unknown
1500020098493,0,74,1.6259765625E-5,48,67,47,7405,4679,1189,878,1007,1806,1187,800,Tag0,unknown
1500020098494,0,73,1.6040039062500002E-5,48,67,47,7405,4679,1189,878,1007,1806,1187,800,Tag0,unknown
1500020098494,0,90,1.9775390625E-5,48,67,47,7405,4679,1189,878,1007,1806,1187,800,Tag0,unknown
1500020098495,0,97,2.13134765625E-5,48,67,47,7405,4679,1189,878,1007,1806,1187,800,Tag0,unknown
1500020098495,0,70,1.5380859375E-5,48,67,47,7405,4679,1189,878,1007,1806,1187,800,Tag0,unknown
1500020098496,0,37,8.1298828125E-6,48,67,47,7405,4679,1189,878,1007,1806,1187,800,Tag0,unknown
1500020098496,0,32,7.03125E-6,48,67,47,7405,4679,1189,878,1007,1806,1187,800,Tag0,unknown
1500020098497,0,50,1.0986328125E-5,48,67,47,7405,4679,1189,878,1007,1806,1187,800,Tag0,unknown
1500020098497,0,68,1.4941406250000001E-5,48,67,47,7405,4679,1189,878,1007,1806,1187,800,Tag0,unknown
1500020098498,0,80,1.7578125E-5,48,67,47,7405,4679,1189,878,1007,1806,1187,800,Tag0,unknown
1500020098499,0,98,2.1533203125E-5,48,67,47,7405,4679,1189,878,1007,1806,1187,800,Tag0,unknown
1500020098499,0,104,2.28515625E-5,48,67,47,7405,4679,1189,878,1007,1806,1187,800,Tag0,unknown
1500020098499,0,101,2.2192382812500002E-5,48,67,47,7405,4679,1189,878,1007,1806,1187,800,Tag0,unknown
1500020098500,0,98,2.1533203125E-5,48,67,47,7405,4679,1189,878,1007,1806,1187,800,Tag0,unknown
1500020098500,0,82,1.8017578124999998E-5,48,67,47,7405,4679,1189,878,1007,1806,1187,800,Tag0,unknown
1500020098505,0,58,1.2744140625E-5,48,67,47,7405,4679,1189,878,1007,1806,1187,800,Tag0,unknown
1500020098506,0,52,1.142578125E-5,48,67,47,7405,4679,1189,878,1007,1806,1187,800,Tag0,unknown
1500020098507,0,65,1.42822265625E-5,48,67,47,7405,4679,1189,878,1007,1806,1187,800,Tag0,unknown
1500020098507,0,68,1.4941406250000001E-5,48,67,47,7405,4679,1189,878,1007,1806,1187,800,Tag0,unknown
1500020098508,0,67,1.4721679687500002E-5,48,67,47,7405,4679,1189,878,1007,1806,1187,800,Tag0,unknown
1500020098508,0,71,1.56005859375E-5,48,67,47,7405,4679,1189,878,1007,1806,1187,800,Tag0,unknown
1500020098509,0,67,1.4721679687500002E-5,48,67,47,7405,4679,1189,878,1007,1806,1187,800,Tag0,unknown
1500020098510,0,52,1.142578125E-5,48,67,47,7405,4679,1189,878,1007,1806,1187,800,Tag0,unknown
1500020098510,0,43,9.448242187500001E-6,48,67,47,7405,4679,1189,878,1007,1806,1187,800,Tag0,unknown
1500020098511,0,50,1.0986328125E-5,48,67,47,7405,4679,1189,878,1007,1806,1187,800,Tag0,unknown
1500020098512,0,76,1.669921875E-5,48,67,47,7405,4679,1189,878,1007,1806,1187,800,Tag0,unknown
1500020098512,0,113,2.48291015625E-5,48,67,47,7405,4679,1189,878,1007,1806,1187,800,Tag0,unknown
1500020098512,0,-127,-2.79052734375E-5,48,67,47,7405,4679,1189,878,1007,1806,1187,800,Tag0,unknown
1500020098512,0,113,2.48291015625E-5,48,67,47,7405,4679,1189,878,1007,1806,1187,800,Tag0,unknown
1500020098513,0,89,1.95556640625E-5,48,67,47,7405,4679,1189,878,1007,1806,1187,800,Tag0,unknown
1500020098513,0,85,1.86767578125E-5,48,67,47,7405,4679,1189,878,1007,1806,1187,800,Tag0,unknown
1500020098513,0,87,1.91162109375E-5,48,67,47,7405,4679,1189,878,1007,1806,1187,800,Tag0,unknown
1500020098513,0,81,1.77978515625E-5,48,67,47,7405,4679,1189,878,1007,1806,1187,800,Tag0,unknown
1500020098514,0,81,1.77978515625E-5,48,67,47,7405,4679,1189,878,1007,1806,1187,800,Tag0,unknown
1500020098514,0,84,1.8457031250000004E-5,48,67,47,7405,4679,1189,878,1007,1806,1187,800,Tag0,unknown
1500020098514,0,83,1.82373046875E-5,48,67,47,7405,4679,1189,878,1007,1806,1187,800,Tag0,unknown
1500020098514,0,76,1.669921875E-5,48,67,47,7405,4679,1189,878,1007,1806,1187,800,Tag0,unknown
1500020098515,0,74,1.6259765625E-5,48,67,47,7405,4679,1189,878,1007,1806,1187,800,Tag0,unknown
1500020098515,0,81,1.77978515625E-5,48,67,47,7405,4679,1189,878,1007,1806,1187,800,Tag0,unknown
1500020098515,0,83,1.82373046875E-5,48,67,47,7405,4679,1189,878,1007,1806,1187,800,Tag0,unknown
1500020098515,0,73,1.6040039062500002E-5,48,67,47,7405,4679,1189,878,1007,1806,1187,800,Tag0,unknown
1500020098516,0,64,1.40625E-5,48,67,47,7405,4679,1189,878,1007,1806,1187,800,Tag0,unknown
1500020098516,0,53,1.1645507812500002E-5,48,67,47,7405,4679,1189,878,1007,1806,1187,800,Tag0,unknown
1500020098516,0,67,1.4721679687500002E-5,48,67,47,7405,4679,1189,878,1007,1806,1187,800,Tag0,unknown
1500020098517,0,97,2.13134765625E-5,48,67,47,7405,4679,1189,878,1007,1806,1187,800,Tag0,unknown
1500020098517,0,101,2.2192382812500002E-5,48,67,47,7405,4679,1189,878,1007,1806,1187,800,Tag0,unknown
1500020098517,0,90,1.9775390625E-5,48,67,47,7405,4679,1189,878,1007,1806,1187,800,Tag0,unknown
1500020098517,0,99,2.1752929687500003E-5,48,67,47,7405,4679,1189,878,1007,1806,1187,800,Tag0,unknown
1500020098517,0,115,2.52685546875E-5,48,67,47,7405,4679,1189,878,1007,1806,1187,800,Tag0,unknown
1500020098518,0,112,2.4609375E-5,48,67,47,7405,4679,1189,878,1007,1806,1187,800,Tag0,unknown
1500020098518,0,89,1.95556640625E-5,48,67,47,7405,4679,1189,878,1007,1806,1187,800,Tag0,unknown
1500020098528,0,77,1.69189453125E-5,48,67,47,7405,4679,1189,878,1007,1806,1187,800,Tag0,unknown
1500020098528,0,66,1.4501953125E-5,48,67,47,7405,4679,1189,878,1007,1806,1187,800,Tag0,unknown
1500020098535,0,52,1.142578125E-5,48,67,47,7405,4679,1189,878,1007,1806,1187,800,Tag0,unknown
1500020098535,0,42,9.228515625000002E-6,48,67,47,7405,4679,1189,878,1007,1806,1187,800,Tag0,unknown
1500020098536,0,38,8.349609375E-6,48,67,47,7405,4679,1189,878,1007,1806,1187,800,Tag0,unknown
1500020098536,0,28,6.15234375E-6,48,67,47,7405,4679,1189,878,1007,1806,1187,800,Tag0,unknown
1500020098536,0,18,3.955078125E-6,48,67,47,7405,4679,1189,878,1007,1806,1187,800,Tag0,unknown
1500020098536,0,22,4.833984375E-6,48,67,47,7405,4679,1189,878,1007,1806,1187,800,Tag0,unknown
1500020098537,0,42,9.228515625000002E-6,48,67,47,7405,4679,1189,878,1007,1806,1187,800,Tag0,unknown
1500020098537,0,60,1.318359375E-5,48,67,47,7405,4679,1189,878,1007,1806,1187,800,Tag0,unknown
1500020098537,0,91,1.99951171875E-5,48,67,47,7405,4679,1189,878,1007,1806,1187,800,Tag0,unknown
1500020098537,0,123,2.70263671875E-5,48,67,47,7405,4679,1189,878,1007,1806,1187,800,Tag0,unknown
1500020098538,0,123,2.70263671875E-5,48,67,47,7405,4679,1189,878,1007,1806,1187,800,Tag0,unknown
1500020098538,0,107,2.35107421875E-5,48,67,47,7405,4679,1189,878,1007,1806,1187,800,Tag0,unknown
1500020098538,0,99,2.1752929687500003E-5,48,67,47,7405,4679,1189,878,1007,1806,1187,800,Tag0,unknown
1500020098538,0,107,2.35107421875E-5,48,67,47,7405,4679,1189,878,1007,1806,1187,800,Tag0,unknown
1500020098539,0,114,2.5048828125000003E-5,48,67,47,7405,4679,1189,878,1007,1806,1187,800,Tag0,unknown
1500020098539,0,98,2.1533203125E-5,48,67,47,7405,4679,1189,878,1007,1806,1187,800,Tag0,unknown
1500020098539,0,73,1.6040039062500002E-5,48,67,47,7405,4679,1189,878,1007,1806,1187,800,Tag0,unknown
1500020098539,0,55,1.20849609375E-5,48,67,47,7405,4679,1189,878,1007,1806,1187,800,Tag0,unknown
1500020098566,0,45,9.8876953125E-6,48,67,47,7405,4679,1189,878,1007,1806,1187,800,Tag0,unknown
1500020098588,0,44,9.66796875E-6,48,67,47,7405,4679,1189,878,1007,1806,1187,800,Tag0,unknown
1500020098589,0,43,9.448242187500001E-6,48,67,47,7405,4679,1189,878,1007,1806,1187,800,Tag0,unknown
1500020098591,0,40,8.7890625E-6,48,67,47,7405,4679,1189,878,1007,1806,1187,800,Tag0,unknown
1500020098593,0,29,6.3720703125E-6,48,67,47,7405,4679,1189,878,1007,1806,1187,800,Tag0,unknown
1500020098594,0,20,4.39453125E-6,48,67,47,7405,4679,1189,878,1007,1806,1187,800,Tag0,unknown
1500020098595,0,41,9.008789062499999E-6,48,67,47,7405,4679,1189,878,1007,1806,1187,800,Tag0,unknown
1500020098596,0,76,1.669921875E-5,48,67,47,7405,4679,1189,878,1007,1806,1187,800,Tag0,unknown
1500020098598,0,87,1.91162109375E-5,48,67,47,7405,4679,1189,878,1007,1806,1187,800,Tag0,unknown
1500020098599,0,83,1.82373046875E-5,48,67,47,7405,4679,1189,878,1007,1806,1187,800,Tag0,unknown
1500020098600,0,65,1.42822265625E-5,48,67,47,7405,4679,1189,878,1007,1806,1187,800,Tag0,unknown
1500020098602,0,50,1.0986328125E-5,48,67,47,7405,4679,1189,878,1007,1806,1187,800,Tag0,unknown
1500020098603,0,57,1.2524414062500001E-5,48,67,47,7405,4679,1189,878,1007,1806,1187,800,Tag0,unknown
1500020098604,0,71,1.56005859375E-5,48,67,47,7405,4679,1189,878,1007,1806,1187,800,Tag0,unknown
1500020098605,0,72,1.58203125E-5,48,67,47,7405,4679,1189,878,1007,1806,1187,800,Tag0,unknown
1500020098606,0,57,1.2524414062500001E-5,48,67,47,7405,4679,1189,878,1007,1806,1187,800,Tag0,unknown
1500020098606,0,45,9.8876953125E-6,48,67,47,7405,4679,1189,878,1007,1806,1187,800,Tag0,unknown
1500020098607,0,65,1.42822265625E-5,48,67,47,7405,4679,1189,878,1007,1806,1187,800,Tag0,unknown
1500020098607,0,101,2.2192382812500002E-5,48,67,47,7405,4679,1189,878,1007,1806,1187,800,Tag0,unknown
1500020098608,0,91,1.99951171875E-5,48,67,47,7405,4679,1189,878,1007,1806,1187,800,Tag0,unknown
1500020098613,0,40,8.7890625E-6,48,67,47,7405,4679,1189,878,1007,1806,1187,800,Tag0,unknown
1500020098614,0,13,2.8564453125E-6,48,67,47,7405,4679,1189,878,1007,1806,1187,800,Tag0,unknown
1500020098615,0,24,5.2734375E-6,48,67,47,7405,4679,1189,878,1007,1806,1187,800,Tag0,unknown
1500020098616,0,53,1.1645507812500002E-5,48,67,47,7405,4679,1189,878,1007,1806,1187,800,Tag0,unknown
1500020098617,0,80,1.7578125E-5,48,67,47,7405,4679,1189,878,1007,1806,1187,800,Tag0,unknown
1500020098617,0,88,1.93359375E-5,48,67,47,7405,4679,1189,878,1007,1806,1187,800,Tag0,unknown
1500020098618,0,75,1.64794921875E-5,48,67,47,7405,4679,1189,878,1007,1806,1187,800,Tag0,unknown
1500020098619,0,60,1.318359375E-5,48,67,47,7405,4679,1189,878,1007,1806,1187,800,Tag0,unknown
1500020098619,0,54,1.1865234375000001E-5,48,67,47,7405,4679,1189,878,1007,1806,1187,800,Tag0,unknown
1500020098620,0,53,1.1645507812500002E-5,48,67,47,7405,4679,1189,878,1007,1806,1187,800,Tag0,unknown
1500020098621,0,57,1.2524414062500001E-5,48,67,47,7405,4679,1189,878,1007,1806,1187,800,Tag0,unknown
1500020098622,0,56,1.23046875E-5,48,67,47,7405,4679,1189,878,1007,1806,1187,800,Tag0,unknown
1500020098622,0,52,1.142578125E-5,48,67,47,7405,4679,1189,878,1007,1806,1187,800,Tag0,unknown
1500020098623,0,50,1.0986328125E-5,48,67,47,7405,4679,1189,878,1007,1806,1187,800,Tag0,unknown
1500020098624,0,48,1.0546875E-5,48,67,47,7405,4679,1189,878,1007,1806,1187,800,Tag0,unknown
1500020098624,0,32,7.03125E-6,48,67,47,7405,4679,1189,878,1007,1806,1187,800,Tag0,unknown
1500020098624,0,17,3.7353515625000003E-6,48,67,47,7405,4679,1189,878,1007,1806,1187,800,Tag0,unknown
1500020098625,0,23,5.0537109375E-6,48,67,47,7405,4679,1189,878,1007,1806,1187,800,Tag0,unknown
1500020098625,0,24,5.2734375E-6,48,67,47,7405,4679,1189,878,1007,1806,1187,800,Tag0,unknown
1500020098625,0,43,9.448242187500001E-6,48,67,47,7405,4679,1189,878,1007,1806,1187,800,Tag0,unknown
1500020098643,0,82,1.8017578124999998E-5,48,67,47,7405,4679,1189,878,1007,1806,1187,800,Tag0,unknown
1500020098654,0,98,2.1533203125E-5,48,67,47,7405,4679,1189,878,1007,1806,1187,800,Tag0,unknown
1500020098655,0,76,1.669921875E-5,48,67,47,7405,4679,1189,878,1007,1806,1187,800,Tag0,unknown
1500020098656,0,54,1.1865234375000001E-5,48,67,47,7405,4679,1189,878,1007,1806,1187,800,Tag0,unknown
1500020098656,0,56,1.23046875E-5,48,67,47,7405,4679,1189,878,1007,1806,1187,800,Tag0,unknown
1500020098657,0,73,1.6040039062500002E-5,48,67,47,7405,4679,1189,878,1007,1806,1187,800,Tag0,unknown
1500020098658,0,67,1.4721679687500002E-5,48,67,47,7405,4679,1189,878,1007,1806,1187,800,Tag0,unknown
1500020098658,0,52,1.142578125E-5,48,67,47,7405,4679,1189,878,1007,1806,1187,800,Tag0,unknown
1500020098659,0,55,1.20849609375E-5,48,67,47,7405,4679,1189,878,1007,1806,1187,800,Tag0,unknown
1500020098660,0,68,1.4941406250000001E-5,48,67,47,7405,4679,1189,878,1007,1806,1187,800,Tag0,unknown
1500020098660,0,72,1.58203125E-5,48,67,47,7405,4679,1189,878,1007,1806,1187,800,Tag0,unknown
1500020098660,0,66,1.4501953125E-5,48,67,47,7405,4679,1189,878,1007,1806,1187,800,Tag0,unknown
1500020098661,0,58,1.2744140625E-5,48,67,47,7405,4679,1189,878,1007,1806,1187,800,Tag0,unknown
1500020098661,0,57,1.2524414062500001E-5,48,67,47,7405,4679,1189,878,1007,1806,1187,800,Tag0,unknown
1500020098662,0,49,1.07666015625E-5,48,67,47,7405,4679,1189,878,1007,1806,1187,800,Tag0,unknown
1500020098662,0,54,1.1865234375000001E-5,48,67,47,7405,4679,1189,878,1007,1806,1187,800,Tag0,unknown
1500020098663,0,71,1.56005859375E-5,48,67,47,7405,4679,1189,878,1007,1806,1187,800,Tag0,unknown
1500020098663,0,76,1.669921875E-5,48,67,47,7405,4679,1189,878,1007,1806,1187,800,Tag0,unknown
1500020098663,0,85,1.86767578125E-5,48,67,47,7405,4679,1189,878,1007,1806,1187,800,Tag0,unknown
1500020098664,0,100,2.197265625E-5,48,67,47,7405,4679,1189,878,1007,1806,1187,800,Tag0,unknown
1500020098685,0,100,2.197265625E-5,48,67,47,7405,4679,1189,878,1007,1806,1187,800,Tag0,unknown
1500020098686,0,87,1.91162109375E-5,48,67,47,7405,4679,1189,878,1007,1806,1187,800,Tag0,unknown
1500020098705,0,72,1.58203125E-5,48,67,47,7405,4679,1189,878,1007,1806,1187,800,Tag0,unknown
1500020098706,0,58,1.2744140625E-5,48,67,47,7405,4679,1189,878,1007,1806,1187,800,Tag0,unknown
1500020098706,0,42,9.228515625000002E-6,48,67,47,7405,4679,1189,878,1007,1806,1187,800,Tag0,unknown
1500020098707,0,48,1.0546875E-5,48,67,47,7405,4679,1189,878,1007,1806,1187,800,Tag0,unknown
1500020098708,0,55,1.20849609375E-5,48,67,47,7405,4679,1189,878,1007,1806,1187,800,Tag0,unknown
1500020098708,0,42,9.228515625000002E-6,48,67,47,7405,4679,1189,878,1007,1806,1187,800,Tag0,unknown
1500020098709,0,34,7.4707031250000005E-6,48,67,47,7405,4679,1189,878,1007,1806,1187,800,Tag0,unknown
1500020098710,0,37,8.1298828125E-6,48,67,47,7405,4679,1189,878,1007,1806,1187,800,Tag0,unknown
1500020098710,0,43,9.448242187500001E-6,48,67,47,7405,4679,1189,878,1007,1806,1187,800,Tag0,unknown
1500020098711,0,68,1.4941406250000001E-5,48,67,47,7405,4679,1189,878,1007,1806,1187,800,Tag0,unknown
1500020098713,0,89,1.95556640625E-5,48,67,47,7405,4679,1189,878,1007,1806,1187,800,Tag0,unknown
1500020098714,0,97,2.13134765625E-5,48,67,47,7405,4679,1189,878,1007,1806,1187,800,Tag0,unknown
1500020098715,0,102,2.2412109374999998E-5,48,67,47,7405,4679,1189,878,1007,1806,1187,800,Tag0,unknown
1500020098716,0,98,2.1533203125E-5,48,67,47,7405,4679,1189,878,1007,1806,1187,800,Tag0,unknown
1500020098717,0,69,1.51611328125E-5,48,67,47,7405,4679,1189,878,1007,1806,1187,800,Tag0,unknown
1500020098718,0,54,1.1865234375000001E-5,48,67,47,7405,4679,1189,878,1007,1806,1187,800,Tag0,unknown
1500020098719,0,64,1.40625E-5,48,67,47,7405,4679,1189,878,1007,1806,1187,800,Tag0,unknown
1500020098721,0,75,1.64794921875E-5,48,67,47,7405,4679,1189,878,1007,1806,1187,800,Tag0,unknown
1500020098728,0,75,1.64794921875E-5,48,67,47,7405,4679,1189,878,1007,1806,1187,800,Tag0,unknown
1500020098728,0,61,1.34033203125E-5,48,67,47,7405,4679,1189,878,1007,1806,1187,800,Tag0,unknown
1500020098729,0,52,1.142578125E-5,48,67,47,7405,4679,1189,878,1007,1806,1187,800,Tag0,unknown
1500020098730,0,51,1.1206054687499999E-5,48,67,47,7405,4679,1189,878,1007,1806,1187,800,Tag0,unknown
1500020098731,0,37,8.1298828125E-6,48,67,47,7405,4679,1189,878,1007,1806,1187,800,Tag0,unknown
1500020098731,0,37,8.1298828125E-6,48,67,47,7405,4679,1189,878,1007,1806,1187,800,Tag0,unknown
1500020098732,0,59,1.29638671875E-5,48,67,47,7405,4679,1189,878,1007,1806,1187,800,Tag0,unknown
1500020098733,0,73,1.6040039062500002E-5,48,67,47,7405,4679,1189,878,1007,1806,1187,800,Tag0,unknown
1500020098735,0,65,1.42822265625E-5,48,67,47,7405,4679,1189,878,1007,1806,1187,800,Tag0,unknown
1500020098735,0,56,1.23046875E-5,48,67,47,7405,4679,1189,878,1007,1806,1187,800,Tag0,unknown
1500020098740,0,70,1.5380859375E-5,48,67,47,7405,4679,1189,878,1007,1806,1187,800,Tag0,unknown
1500020098741,0,100,2.197265625E-5,48,67,47,7405,4679,1189,878,1007,1806,1187,800,Tag0,unknown
1500020098742,0,121,2.6586914062500003E-5,48,67,47,7405,4679,1189,878,1007,1806,1187,800,Tag0,unknown
1500020098743,0,123,2.70263671875E-5,48,67,47,7405,4679,1189,878,1007,1806,1187,800,Tag0,unknown
1500020098743,0,113,2.48291015625E-5,48,67,47,7405,4679,1189,878,1007,1806,1187,800,Tag0,unknown
1500020098744,0,99,2.1752929687500003E-5,48,67,47,7405,4679,1189,878,1007,1806,1187,800,Tag0,unknown
1500020098745,0,92,2.021484375E-5,48,67,47,7405,4679,1189,878,1007,1806,1187,800,Tag0,unknown
1500020098745,0,100,2.197265625E-5,48,67,47,7405,4679,1189,878,1007,1806,1187,800,Tag0,unknown
1500020098746,0,106,2.3291015625000003E-5,48,67,47,7405,4679,1189,878,1007,1806,1187,800,Tag0,unknown
1500020098747,0,107,2.35107421875E-5,48,67,47,7405,4679,1189,878,1007,1806,1187,800,Tag0,unknown
1500020098762,0,103,2.26318359375E-5,48,67,47,7405,4679,1189,878,1007,1806,1187,800,Tag0,unknown
1500020098773,0,84,1.8457031250000004E-5,48,67,47,7405,4679,1189,878,1007,1806,1187,800,Tag0,unknown
1500020098774,0,73,1.6040039062500002E-5,48,67,47,7405,4679,1189,878,1007,1806,1187,800,Tag0,unknown
1500020098774,0,70,1.5380859375E-5,48,67,47,7405,4679,1189,878,1007,1806,1187,800,Tag0,unknown
1500020098775,0,65,1.42822265625E-5,48,67,47,7405,4679,1189,878,1007,1806,1187,800,Tag0,unknown
1500020098776,0,65,1.42822265625E-5,48,67,47,7405,4679,1189,878,1007,1806,1187,800,Tag0,unknown
1500020098776,0,55,1.20849609375E-5,48,67,47,7405,4679,1189,878,1007,1806,1187,800,Tag0,unknown
1500020098777,0,35,7.6904296875E-6,48,67,47,7405,4679,1189,878,1007,1806,1187,800,Tag0,unknown
1500020098778,0,29,6.3720703125E-6,48,67,47,7405,4679,1189,878,1007,1806,1187,800,Tag0,unknown
1500020098778,0,35,7.6904296875E-6,48,67,47,7405,4679,1189,878,1007,1806,1187,800,Tag0,unknown
1500020098779,0,37,8.1298828125E-6,48,67,47,7405,4679,1189,878,1007,1806,1187,800,Tag0,unknown
1500020098779,0,41,9.008789062499999E-6,48,67,47,7405,4679,1189,878,1007,1806,1187,800,Tag0,unknown
1500020098780,0,50,1.0986328125E-5,48,67,47,7405,4679,1189,878,1007,1806,1187,800,Tag0,unknown
1500020098780,0,57,1.2524414062500001E-5,48,67,47,7405,4679,1189,878,1007,1806,1187,800,Tag0,unknown
1500020098781,0,70,1.5380859375E-5,48,67,47,7405,4679,1189,878,1007,1806,1187,800,Tag0,unknown
1500020098781,0,82,1.8017578124999998E-5,48,67,47,7405,4679,1189,878,1007,1806,1187,800,Tag0,unknown
1500020098782,0,91,1.99951171875E-5,48,67,47,7405,4679,1189,878,1007,1806,1187,800,Tag0,unknown
1500020098782,0,100,2.197265625E-5,48,67,47,7405,4679,1189,878,1007,1806,1187,800,Tag0,unknown
1500020098783,0,85,1.86767578125E-5,48,67,47,7405,4679,1189,878,1007,1806,1187,800,Tag0,unknown
1500020098783,0,69,1.51611328125E-5,48,67,47,7405,4679,1189,878,1007,1806,1187,800,Tag0,unknown
1500020098799,0,86,1.8896484375000003E-5,48,67,47,7405,4679,1189,878,1007,1806,1187,800,Tag0,unknown
1500020098809,0,117,2.5708007812499998E-5,48,67,47,7405,4679,1189,878,1007,1806,1187,800,Tag0,unknown
1500020098810,0,108,2.3730468750000002E-5,48,67,47,7405,4679,1189,878,1007,1806,1187,800,Tag0,unknown
1500020098811,0,68,1.4941406250000001E-5,48,67,47,7405,4679,1189,878,1007,1806,1187,800,Tag0,unknown
1500020098812,0,35,7.6904296875E-6,48,67,47,7405,4679,1189,878,1007,1806,1187,800,Tag0,unknown
1500020098813,0,32,7.03125E-6,48,67,47,7405,4679,1189,878,1007,1806,1187,800,Tag0,unknown
1500020098813,0,41,9.008789062499999E-6,48,67,47,7405,4679,1189,878,1007,1806,1187,800,Tag0,unknown
1500020098814,0,55,1.20849609375E-5,48,67,47,7405,4679,1189,878,1007,1806,1187,800,Tag0,unknown
1500020098815,0,55,1.20849609375E-5,48,67,47,7405,4679,1189,878,1007,1806,1187,800,Tag0,unknown
1500020098816,0,37,8.1298828125E-6,48,67,47,7405,4679,1189,878,1007,1806,1187,800,Tag0,unknown
1500020098816,0,10,2.197265625E-6,48,67,47,7405,4679,1189,878,1007,1806,1187,800,Tag0,unknown
1500020098817,0,3,6.591796875E-7,48,67,47,7405,4679,1189,878,1007,1806,1187,800,Tag0,unknown
1500020098818,0,27,5.9326171875000005E-6,48,67,47,7405,4679,1189,878,1007,1806,1187,800,Tag0,unknown
1500020098818,0,55,1.20849609375E-5,48,67,47,7405,4679,1189,878,1007,1806,1187,800,Tag0,unknown
1500020098819,0,64,1.40625E-5,48,67,47,7405,4679,1189,878,1007,1806,1187,800,Tag0,unknown
1500020098820,0,53,1.1645507812500002E-5,48,67,47,7405,4679,1189,878,1007,1806,1187,800,Tag0,unknown
1500020098822,0,44,9.66796875E-6,48,67,47,7405,4679,1189,878,1007,1806,1187,800,Tag0,unknown
1500020098822,0,40,8.7890625E-6,48,67,47,7405,4679,1189,878,1007,1806,1187,800,Tag0,unknown
1500020098823,0,34,7.4707031250000005E-6,48,67,47,7405,4679,1189,878,1007,1806,1187,800,Tag0,unknown
1500020098824,0,17,3.7353515625000003E-6,48,67,47,7405,4679,1189,878,1007,1806,1187,800,Tag0,unknown
1500020098839,0,-262,-5.7568359375E-5,48,67,47,7405,4679,1189,878,1007,1806,1187,800,Tag0,unknown
1500020098859,0,-266,-5.8447265625E-5,48,67,47,7405,4679,1189,878,1007,1806,1187,800,Tag0,unknown
1500020098860,0,10,2.197265625E-6,48,67,47,7405,4679,1189,878,1007,1806,1187,800,Tag0,unknown
1500020098861,0,24,5.2734375E-6,48,67,47,7405,4679,1189,878,1007,1806,1187,800,Tag0,unknown
1500020098861,0,8,1.7578125E-6,48,67,47,7405,4679,1189,878,1007,1806,1187,800,Tag0,unknown
1500020098862,0,-258,-5.6689453125000004E-5,48,67,47,7405,4679,1189,878,1007,1806,1187,800,Tag0,unknown
1500020098863,0,-257,-5.64697265625E-5,48,67,47,7405,4679,1189,878,1007,1806,1187,800,Tag0,unknown
1500020098864,0,6,1.318359375E-6,48,67,47,7405,4679,1189,878,1007,1806,1187,800,Tag0,unknown
1500020098868,0,19,4.1748046875E-6,48,67,47,7405,4679,1189,878,1007,1806,1187,800,Tag0,unknown
1500020098870,0,37,8.1298828125E-6,48,67,47,7405,4679,1189,878,1007,1806,1187,800,Tag0,unknown
1500020098870,0,56,1.23046875E-5,48,67,47,7405,4679,1189,878,1007,1806,1187,800,Tag0,unknown
1500020098871,0,84,1.8457031250000004E-5,48,67,47,7405,4679,1189,878,1007,1806,1187,800,Tag0,unknown
1500020098873,0,107,2.35107421875E-5,48,67,47,7405,4679,1189,878,1007,1806,1187,800,Tag0,unknown
1500020098874,0,105,2.30712890625E-5,48,67,47,7405,4679,1189,878,1007,1806,1187,800,Tag0,unknown
1500020098874,0,98,2.1533203125E-5,48,67,47,7405,4679,1189,878,1007,1806,1187,800,Tag0,unknown
1500020098875,0,92,2.021484375E-5,48,67,47,7405,4679,1189,878,1007,1806,1187,800,Tag0,unknown
1500020098876,0,70,1.5380859375E-5,48,67,47,7405,4679,1189,878,1007,1806,1187,800,Tag0,unknown
1500020098876,0,68,1.4941406250000001E-5,48,67,47,7405,4679,1189,878,1007,1806,1187,800,Tag0,unknown
1500020098880,0,96,2.109375E-5,48,67,47,7405,4679,1189,878,1007,1806,1187,800,Tag0,unknown
1500020098882,0,100,2.197265625E-5,48,67,47,7405,4679,1189,878,1007,1806,1187,800,Tag0,unknown
1500020098888,0,75,1.64794921875E-5,48,67,47,7405,4679,1189,878,1007,1806,1187,800,Tag0,unknown
1500020098888,0,50,1.0986328125E-5,48,67,47,7405,4679,1189,878,1007,1806,1187,800,Tag0,unknown
1500020098889,0,28,6.15234375E-6,48,67,47,7405,4679,1189,878,1007,1806,1187,800,Tag0,unknown
1500020098890,0,17,3.7353515625000003E-6,48,67,47,7405,4679,1189,878,1007,1806,1187,800,Tag0,unknown
1500020098890,0,11,2.4169921875E-6,48,67,47,7405,4679,1189,878,1007,1806,1187,800,Tag0,unknown
1500020098891,0,33,7.2509765625E-6,48,67,47,7405,4679,1189,878,1007,1806,1187,800,Tag0,unknown
1500020098892,0,57,1.2524414062500001E-5,48,67,47,7405,4679,1189,878,1007,1806,1187,800,Tag0,unknown
1500020098893,0,71,1.56005859375E-5,48,67,47,7405,4679,1189,878,1007,1806,1187,800,Tag0,unknown
1500020098894,0,72,1.58203125E-5,48,67,47,7405,4679,1189,878,1007,1806,1187,800,Tag0,unknown
1500020098894,0,70,1.5380859375E-5,48,67,47,7405,4679,1189,878,1007,1806,1187,800,Tag0,unknown
1500020098895,0,69,1.51611328125E-5,48,67,47,7405,4679,1189,878,1007,1806,1187,800,Tag0,unknown
1500020098896,0,80,1.7578125E-5,48,67,47,7405,4679,1189,878,1007,1806,1187,800,Tag0,unknown
1500020098896,0,98,2.1533203125E-5,48,67,47,7405,4679,1189,878,1007,1806,1187,800,Tag0,unknown
1500020098898,0,113,2.48291015625E-5,48,67,47,7405,4679,1189,878,1007,1806,1187,800,Tag0,unknown
1500020098898,0,-127,-2.79052734375E-5,48,67,47,7405,4679,1189,878,1007,1806,1187,800,Tag0,unknown
1500020098899,0,112,2.4609375E-5,48,67,47,7405,4679,1189,878,1007,1806,1187,800,Tag0,unknown
1500020098899,0,84,1.8457031250000004E-5,48,67,47,7405,4679,1189,878,1007,1806,1187,800,Tag0,unknown
1500020098900,0,72,1.58203125E-5,48,67,47,7405,4679,1189,878,1007,1806,1187,800,Tag0,unknown
1500020098900,0,54,1.1865234375000001E-5,48,67,47,7405,4679,1189,878,1007,1806,1187,800,Tag0,unknown
1500020098900,0,33,7.2509765625E-6,48,67,47,7405,4679,1189,878,1007,1806,1187,800,Tag0,unknown
1500020098917,0,27,5.9326171875000005E-6,48,67,47,7405,4679,1189,878,1007,1806,1187,800,Tag0,unknown
1500020098917,0,39,8.5693359375E-6,48,67,47,7405,4679,1189,878,1007,1806,1187,800,Tag0,unknown
1500020098922,0,56,1.23046875E-5,48,67,47,7405,4679,1189,878,1007,1806,1187,800,Tag0,unknown
1500020098922,0,66,1.4501953125E-5,48,67,47,7405,4679,1189,878,1007,1806,1187,800,Tag0,unknown
1500020098923,0,51,1.1206054687499999E-5,48,67,47,7405,4679,1189,878,1007,1806,1187,800,Tag0,unknown
1500020098923,0,42,9.228515625000002E-6,48,67,47,7405,4679,1189,878,1007,1806,1187,800,Tag0,unknown
1500020098923,0,49,1.07666015625E-5,48,67,47,7405,4679,1189,878,1007,1806,1187,800,Tag0,unknown
1500020098923,0,42,9.228515625000002E-6,48,67,47,7405,4679,1189,878,1007,1806,1187,800,Tag0,unknown
1500020098924,0,17,3.7353515625000003E-6,48,67,47,7405,4679,1189,878,1007,1806,1187,800,Tag0,unknown
1500020098924,0,10,2.197265625E-6,48,67,47,7405,4679,1189,878,1007,1806,1187,800,Tag0,unknown
1500020098924,0,37,8.1298828125E-6,48,67,47,7405,4679,1189,878,1007,1806,1187,800,Tag0,unknown
1500020098924,0,53,1.1645507812500002E-5,48,67,47,7405,4679,1189,878,1007,1806,1187,800,Tag0,unknown
1500020098925,0,59,1.29638671875E-5,48,67,47,7405,4679,1189,878,1007,1806,1187,800,Tag0,unknown
1500020098925,0,54,1.1865234375000001E-5,48,67,47,7405,4679,1189,878,1007,1806,1187,800,Tag0,unknown
1500020098925,0,40,8.7890625E-6,48,67,47,7405,4679,1189,878,1007,1806,1187,800,Tag0,unknown
1500020098925,0,42,9.228515625000002E-6,48,67,47,7405,4679,1189,878,1007,1806,1187,800,Tag0,unknown
1500020098926,0,55,1.20849609375E-5,48,67,47,7405,4679,1189,878,1007,1806,1187,800,Tag0,unknown
1500020098926,0,75,1.64794921875E-5,48,67,47,7405,4679,1189,878,1007,1806,1187,800,Tag0,unknown
1500020098926,0,88,1.93359375E-5,48,67,47,7405,4679,1189,878,1007,1806,1187,800,Tag0,unknown
1500020098926,0,80,1.7578125E-5,48,67,47,7405,4679,1189,878,1007,1806,1187,800,Tag0,unknown
1500020098954,0,68,1.4941406250000001E-5,48,67,47,7405,4679,1189,878,1007,1806,1187,800,Tag0,unknown
1500020098955,0,71,1.56005859375E-5,48,67,47,7405,4679,1189,878,1007,1806,1187,800,Tag0,unknown
1500020098973,0,76,1.669921875E-5,48,67,47,7405,4679,1189,878,1007,1806,1187,800,Tag0,unknown
1500020098974,0,82,1.8017578124999998E-5,48,67,47,7405,4679,1189,878,1007,1806,1187,800,Tag0,unknown
1500020098975,0,80,1.7578125E-5,48,67,47,7405,4679,1189,878,1007,1806,1187,800,Tag0,unknown
1500020098975,0,67,1.4721679687500002E-5,48,67,47,7405,4679,1189,878,1007,1806,1187,800,Tag0,unknown
1500020098976,0,53,1.1645507812500002E-5,48,67,47,7405,4679,1189,878,1007,1806,1187,800,Tag0,unknown
1500020098977,0,51,1.1206054687499999E-5,48,67,47,7405,4679,1189,878,1007,1806,1187,800,Tag0,unknown
1500020098978,0,50,1.0986328125E-5,48,67,47,7405,4679,1189,878,1007,1806,1187,800,Tag0,unknown
1500020098978,0,51,1.1206054687499999E-5,48,67,47,7405,4679,1189,878,1007,1806,1187,800,Tag0,unknown
1500020098979,0,69,1.51611328125E-5,48,67,47,7405,4679,1189,878,1007,1806,1187,800,Tag0,unknown
1500020098980,0,72,1.58203125E-5,48,67,47,7405,4679,1189,878,1007,1806,1187,800,Tag0,unknown
1500020098980,0,66,1.4501953125E-5,48,67,47,7405,4679,1189,878,1007,1806,1187,800,Tag0,unknown
1500020098981,0,72,1.58203125E-5,48,67,47,7405,4679,1189,878,1007,1806,1187,800,Tag0,unknown
1500020098981,0,86,1.8896484375000003E-5,48,67,47,7405,4679,1189,878,1007,1806,1187,800,Tag0,unknown
1500020098982,0,93,2.04345703125E-5,48,67,47,7405,4679,1189,878,1007,1806,1187,800,Tag0,unknown
1500020098983,0,101,2.2192382812500002E-5,48,67,47,7405,4679,1189,878,1007,1806,1187,800,Tag0,unknown
1500020098983,0,103,2.26318359375E-5,48,67,47,7405,4679,1189,878,1007,1806,1187,800,Tag0,unknown
1500020098983,0,99,2.1752929687500003E-5,48,67,47,7405,4679,1189,878,1007,1806,1187,800,Tag0,unknown
1500020098984,0,102,2.2412109374999998E-5,48,67,47,7405,4679,1189,878,1007,1806,1187,800,Tag0,unknown
1500020098995,0,99,2.1752929687500003E-5,48,67,47,7405,4679,1189,878,1007,1806,1187,800,Tag0,unknown
1500020099008,0,89,1.95556640625E-5,48,67,47,7405,4679,1189,878,1007,1806,1187,800,Tag0,unknown
1500020099009,0,85,1.86767578125E-5,48,67,47,7405,4679,1189,878,1007,1806,1187,800,Tag0,unknown
1500020099010,0,87,1.91162109375E-5,48,67,47,7405,4679,1189,878,1007,1806,1187,800,Tag0,unknown
1500020099011,0,97,2.13134765625E-5,48,67,47,7405,4679,1189,878,1007,1806,1187,800,Tag0,unknown
1500020099011,0,87,1.91162109375E-5,48,67,47,7405,4679,1189,878,1007,1806,1187,800,Tag0,unknown
1500020099012,0,58,1.2744140625E-5,48,67,47,7405,4679,1189,878,1007,1806,1187,800,Tag0,unknown
1500020099013,0,51,1.1206054687499999E-5,48,67,47,7405,4679,1189,878,1007,1806,1187,800,Tag0,unknown
1500020099014,0,80,1.7578125E-5,48,67,47,7405,4679,1189,878,1007,1806,1187,800,Tag0,unknown
1500020099014,0,106,2.3291015625000003E-5,48,67,47,7405,4679,1189,878,1007,1806,1187,800,Tag0,unknown
1500020099015,0,117,2.5708007812499998E-5,48,67,47,7405,4679,1189,878,1007,1806,1187,800,Tag0,unknown
1500020099016,0,118,2.5927734375E-5,48,67,47,7405,4679,1189,878,1007,1806,1187,800,Tag0,unknown
1500020099016,0,102,2.2412109374999998E-5,48,67,47,7405,4679,1189,878,1007,1806,1187,800,Tag0,unknown
1500020099017,0,83,1.82373046875E-5,48,67,47,7405,4679,1189,878,1007,1806,1187,800,Tag0,unknown
1500020099018,0,82,1.8017578124999998E-5,48,67,47,7405,4679,1189,878,1007,1806,1187,800,Tag0,unknown
1500020099018,0,90,1.9775390625E-5,48,67,47,7405,4679,1189,878,1007,1806,1187,800,Tag0,unknown
1500020099019,0,97,2.13134765625E-5,48,67,47,7405,4679,1189,878,1007,1806,1187,800,Tag0,unknown
1500020099019,0,90,1.9775390625E-5,48,67,47,7405,4679,1189,878,1007,1806,1187,800,Tag0,unknown
1500020099019,0,76,1.669921875E-5,48,67,47,7405,4679,1189,878,1007,1806,1187,800,Tag0,unknown
1500020099020,0,64,1.40625E-5,48,67,47,7405,4679,1189,878,1007,1806,1187,800,Tag0,unknown
1500020099032,0,50,1.0986328125E-5,48,67,47,7405,4679,1189,878,1007,1806,1187,800,Tag0,unknown
1500020099042,0,36,7.91015625E-6,48,67,47,7405,4679,1189,878,1007,1806,1187,800,Tag0,unknown
1500020099043,0,19,4.1748046875E-6,48,67,47,7405,4679,1189,878,1007,1806,1187,800,Tag0,unknown
1500020099044,0,18,3.955078125E-6,48,67,47,7405,4679,1189,878,1007,1806,1187,800,Tag0,unknown
1500020099044,0,41,9.008789062499999E-6,48,67,47,7405,4679,1189,878,1007,1806,1187,800,Tag0,unknown
1500020099045,0,68,1.4941406250000001E-5,48,67,47,7405,4679,1189,878,1007,1806,1187,800,Tag0,unknown
1500020099046,0,80,1.7578125E-5,48,67,47,7405,4679,1189,878,1007,1806,1187,800,Tag0,unknown
1500020099046,0,71,1.56005859375E-5,48,67,47,7405,4679,1189,878,1007,1806,1187,800,Tag0,unknown
1500020099047,0,74,1.6259765625E-5,48,67,47,7405,4679,1189,878,1007,1806,1187,800,Tag0,unknown
1500020099048,0,85,1.86767578125E-5,48,67,47,7405,4679,1189,878,1007,1806,1187,800,Tag0,unknown
1500020099049,0,85,1.86767578125E-5,48,67,47,7405,4679,1189,878,1007,1806,1187,800,Tag0,unknown
1500020099049,0,86,1.8896484375000003E-5,48,67,47,7405,4679,1189,878,1007,1806,1187,800,Tag0,unknown
1500020099050,0,86,1.8896484375000003E-5,48,67,47,7405,4679,1189,878,1007,1806,1187,800,Tag0,unknown
1500020099050,0,75,1.64794921875E-5,48,67,47,7405,4679,1189,878,1007,1806,1187,800,Tag0,unknown
1500020099050,0,68,1.4941406250000001E-5,48,67,47,7405,4679,1189,878,1007,1806,1187,800,Tag0,unknown
1500020099051,0,57,1.2524414062500001E-5,48,67,47,7405,4679,1189,878,1007,1806,1187,800,Tag0,unknown
1500020099052,0,51,1.1206054687499999E-5,48,67,47,7405,4679,1189,878,1007,1806,1187,800,Tag0,unknown
1500020099053,0,67,1.4721679687500002E-5,48,67,47,7405,4679,1189,878,1007,1806,1187,800,Tag0,unknown
1500020099059,0,77,1.69189453125E-5,48,67,47,7405,4679,1189,878,1007,1806,1187,800,Tag0,unknown
1500020099059,0,75,1.64794921875E-5,48,67,47,7405,4679,1189,878,1007,1806,1187,800,Tag0,unknown
1500020099076,0,82,1.8017578124999998E-5,48,67,47,7405,4679,1189,878,1007,1806,1187,800,Tag0,unknown
1500020099077,0,76,1.669921875E-5,48,67,47,7405,4679,1189,878,1007,1806,1187,800,Tag0,unknown
1500020099078,0,86,1.8896484375000003E-5,48,67,47,7405,4679,1189,878,1007,1806,1187,800,Tag0,unknown
1500020099079,0,113,2.48291015625E-5,48,67,47,7405,4679,1189,878,1007,1806,1187,800,Tag0,unknown
1500020099080,0,119,2.6147460937500004E-5,48,67,47,7405,4679,1189,878,1007,1806,1187,800,Tag0,unknown
1500020099080,0,100,2.197265625E-5,48,67,47,7405,4679,1189,878,1007,1806,1187,800,Tag0,unknown
1500020099081,0,67,1.4721679687500002E-5,48,67,47,7405,4679,1189,878,1007,1806,1187,800,Tag0,unknown
1500020099082,0,41,9.008789062499999E-6,48,67,47,7405,4679,1189,878,1007,1806,1187,800,Tag0,unknown
1500020099083,0,41,9.008789062499999E-6,48,67,47,7405,4679,1189,878,1007,1806,1187,800,Tag0,unknown
1500020099083,0,50,1.0986328125E-5,48,67,47,7405,4679,1189,878,1007,1806,1187,800,Tag0,unknown
1500020099092,0,38,8.349609375E-6,48,67,47,7405,4679,1189,878,1007,1806,1187,800,Tag0,unknown
1500020099093,0,24,5.2734375E-6,48,67,47,7405,4679,1189,878,1007,1806,1187,800,Tag0,unknown
1500020099094,0,27,5.9326171875000005E-6,48,67,47,7405,4679,1189,878,1007,1806,1187,800,Tag0,unknown
1500020099095,0,42,9.228515625000002E-6,48,67,47,7405,4679,1189,878,1007,1806,1187,800,Tag0,unknown
1500020099095,0,52,1.142578125E-5,48,67,47,7405,4679,1189,878,1007,1806,1187,800,Tag0,unknown
1500020099096,0,40,8.7890625E-6,48,67,47,7405,4679,1189,878,1007,1806,1187,800,Tag0,unknown
1500020099096,0,40,8.7890625E-6,48,67,47,7405,4679,1189,878,1007,1806,1187,800,Tag0,unknown
1500020099097,0,54,1.1865234375000001E-5,48,67,47,7405,4679,1189,878,1007,1806,1187,800,Tag0,unknown
1500020099098,0,48,1.0546875E-5,48,67,47,7405,4679,1189,878,1007,1806,1187,800,Tag0,unknown
1500020099099,0,25,5.4931640625E-6,48,67,47,7405,4679,1189,878,1007,1806,1187,800,Tag0,unknown
1500020099111,0,23,5.0537109375E-6,48,67,47,7405,4679,1189,878,1007,1806,1187,800,Tag0,unknown
1500020099126,0,35,7.6904296875E-6,48,67,47,7405,4679,1189,878,1007,1806,1187,800,Tag0,unknown
1500020099127,0,27,5.9326171875000005E-6,48,67,47,7405,4679,1189,878,1007,1806,1187,800,Tag0,unknown
1500020099128,0,10,2.197265625E-6,48,67,47,7405,4679,1189,878,1007,1806,1187,800,Tag0,unknown
1500020099128,0,4,8.7890625E-7,48,67,47,7405,4679,1189,878,1007,1806,1187,800,Tag0,unknown
1500020099129,0,3,6.591796875E-7,48,67,47,7405,4679,1189,878,1007,1806,1187,800,Tag0,unknown
1500020099130,0,3,6.591796875E-7,48,67,47,7405,4679,1189,878,1007,1806,1187,800,Tag0,unknown
1500020099130,0,9,1.9775390625E-6,48,67,47,7405,4679,1189,878,1007,1806,1187,800,Tag0,unknown
1500020099131,0,35,7.6904296875E-6,48,67,47,7405,4679,1189,878,1007,1806,1187,800,Tag0,unknown
1500020099132,0,64,1.40625E-5,48,67,47,7405,4679,1189,878,1007,1806,1187,800,Tag0,unknown
1500020099144,0,86,1.8896484375000003E-5,48,67,47,7405,4679,1189,878,1007,1806,1187,800,Tag0,unknown
1500020099145,0,90,1.9775390625E-5,48,67,47,7405,4679,1189,878,1007,1806,1187,800,Tag0,unknown
1500020099145,0,90,1.9775390625E-5,48,67,47,7405,4679,1189,878,1007,1806,1187,800,Tag0,unknown
1500020099146,0,99,2.1752929687500003E-5,48,67,47,7405,4679,1189,878,1007,1806,1187,800,Tag0,unknown
1500020099147,0,101,2.2192382812500002E-5,48,67,47,7405,4679,1189,878,1007,1806,1187,800,Tag0,unknown
1500020099148,0,107,2.35107421875E-5,48,67,47,7405,4679,1189,878,1007,1806,1187,800,Tag0,unknown
1500020099148,0,123,2.70263671875E-5,48,67,47,7405,4679,1189,878,1007,1806,1187,800,Tag0,unknown
1500020099149,0,-119,-2.6147460937500004E-5,48,67,47,7405,4679,1189,878,1007,1806,1187,800,Tag0,unknown
1500020099150,0,-126,-2.7685546875E-5,48,67,47,7405,4679,1189,878,1007,1806,1187,800,Tag0,unknown
1500020099150,0,113,2.48291015625E-5,48,67,47,7405,4679,1189,878,1007,1806,1187,800,Tag0,unknown
1500020099151,0,103,2.26318359375E-5,48,67,47,7405,4679,1189,878,1007,1806,1187,800,Tag0,unknown
1500020099151,0,87,1.91162109375E-5,48,67,47,7405,4679,1189,878,1007,1806,1187,800,Tag0,unknown
1500020099152,0,68,1.4941406250000001E-5,48,67,47,7405,4679,1189,878,1007,1806,1187,800,Tag0,unknown
1500020099153,0,58,1.2744140625E-5,48,67,47,7405,4679,1189,878,1007,1806,1187,800,Tag0,unknown
1500020099153,0,68,1.4941406250000001E-5,48,67,47,7405,4679,1189,878,1007,1806,1187,800,Tag0,unknown
1500020099154,0,75,1.64794921875E-5,48,67,47,7405,4679,1189,878,1007,1806,1187,800,Tag0,unknown
1500020099154,0,74,1.6259765625E-5,48,67,47,7405,4679,1189,878,1007,1806,1187,800,Tag0,unknown
1500020099160,0,58,1.2744140625E-5,48,67,47,7405,4679,1189,878,1007,1806,1187,800,Tag0,unknown
1500020099160,0,54,1.1865234375000001E-5,48,67,47,7405,4679,1189,878,1007,1806,1187,800,Tag0,unknown
1500020099161,0,67,1.4721679687500002E-5,48,67,47,7405,4679,1189,878,1007,1806,1187,800,Tag0,unknown
1500020099177,0,66,1.4501953125E-5,48,67,47,7405,4679,1189,878,1007,1806,1187,800,Tag0,unknown
1500020099178,0,57,1.2524414062500001E-5,48,67,47,7405,4679,1189,878,1007,1806,1187,800,Tag0,unknown
1500020099179,0,76,1.669921875E-5,48,67,47,7405,4679,1189,878,1007,1806,1187,800,Tag0,unknown
1500020099179,0,98,2.1533203125E-5,48,67,47,7405,4679,1189,878,1007,1806,1187,800,Tag0,unknown
1500020099180,0,87,1.91162109375E-5,48,67,47,7405,4679,1189,878,1007,1806,1187,800,Tag0,unknown
1500020099181,0,57,1.2524414062500001E-5,48,67,47,7405,4679,1189,878,1007,1806,1187,800,Tag0,unknown
1500020099194,0,33,7.2509765625E-6,48,67,47,7405,4679,1189,878,1007,1806,1187,800,Tag0,unknown
1500020099194,0,34,7.4707031250000005E-6,48,67,47,7405,4679,1189,878,1007,1806,1187,800,Tag0,unknown
1500020099195,0,53,1.1645507812500002E-5,48,67,47,7405,4679,1189,878,1007,1806,1187,800,Tag0,unknown
1500020099196,0,51,1.1206054687499999E-5,48,67,47,7405,4679,1189,878,1007,1806,1187,800,Tag0,unknown
1500020099197,0,34,7.4707031250000005E-6,48,67,47,7405,4679,1189,878,1007,1806,1187,800,Tag0,unknown
1500020099197,0,28,6.15234375E-6,48,67,47,7405,4679,1189,878,1007,1806,1187,800,Tag0,unknown
1500020099198,0,42,9.228515625000002E-6,48,67,47,7405,4679,1189,878,1007,1806,1187,800,Tag0,unknown
1500020099199,0,45,9.8876953125E-6,48,67,47,7405,4679,1189,878,1007,1806,1187,800,Tag0,unknown
1500020099199,0,43,9.448242187500001E-6,48,67,47,7405,4679,1189,878,1007,1806,1187,800,Tag0,unknown
1500020099200,0,42,9.228515625000002E-6,48,67,47,7405,4679,1189,878,1007,1806,1187,800,Tag0,unknown
1500020099200,0,39,8.5693359375E-6,48,67,47,7405,4679,1189,878,1007,1806,1187,800,Tag0,unknown
1500020099201,0,33,7.2509765625E-6,48,67,47,7405,4679,1189,878,1007,1806,1187,800,Tag0,unknown
1500020099202,0,37,8.1298828125E-6,48,67,47,7405,4679,1189,878,1007,1806,1187,800,Tag0,unknown
1500020099202,0,51,1.1206054687499999E-5,48,67,47,7405,4679,1189,878,1007,1806,1187,800,Tag0,unknown
1500020099212,0,54,1.1865234375000001E-5,48,67,47,7405,4679,1189,878,1007,1806,1187,800,Tag0,unknown
1500020099227,0,54,1.1865234375000001E-5,48,67,47,7405,4679,1189,878,1007,1806,1187,800,Tag0,unknown
1500020099228,0,80,1.7578125E-5,48,67,47,7405,4679,1189,878,1007,1806,1187,800,Tag0,unknown
1500020099228,0,106,2.3291015625000003E-5,48,67,47,7405,4679,1189,878,1007,1806,1187,800,Tag0,unknown
1500020099229,0,98,2.1533203125E-5,48,67,47,7405,4679,1189,878,1007,1806,1187,800,Tag0,unknown
1500020099230,0,59,1.29638671875E-5,48,67,47,7405,4679,1189,878,1007,1806,1187,800,Tag0,unknown
1500020099230,0,39,8.5693359375E-6,48,67,47,7405,4679,1189,878,1007,1806,1187,800,Tag0,unknown
1500020099231,0,50,1.0986328125E-5,48,67,47,7405,4679,1189,878,1007,1806,1187,800,Tag0,unknown
1500020099232,0,64,1.40625E-5,48,67,47,7405,4679,1189,878,1007,1806,1187,800,Tag0,unknown
1500020099232,0,65,1.42822265625E-5,48,67,47,7405,4679,1189,878,1007,1806,1187,800,Tag0,unknown
1500020099233,0,56,1.23046875E-5,48,67,47,7405,4679,1189,878,1007,1806,1187,800,Tag0,unknown
1500020099234,0,54,1.1865234375000001E-5,48,67,47,7405,4679,1189,878,1007,1806,1187,800,Tag0,unknown
1500020099235,0,67,1.4721679687500002E-5,48,67,47,7405,4679,1189,878,1007,1806,1187,800,Tag0,unknown
1500020099236,0,76,1.669921875E-5,48,67,47,7405,4679,1189,878,1007,1806,1187,800,Tag0,unknown
1500020099236,0,57,1.2524414062500001E-5,48,67,47,7405,4679,1189,878,1007,1806,1187,800,Tag0,unknown
1500020099237,0,39,8.5693359375E-6,48,67,47,7405,4679,1189,878,1007,1806,1187,800,Tag0,unknown
1500020099237,0,54,1.1865234375000001E-5,48,67,47,7405,4679,1189,878,1007,1806,1187,800,Tag0,unknown
1500020099238,0,72,1.58203125E-5,48,67,47,7405,4679,1189,878,1007,1806,1187,800,Tag0,unknown
1500020099238,0,72,1.58203125E-5,48,67,47,7405,4679,1189,878,1007,1806,1187,800,Tag0,unknown
1500020099238,0,57,1.2524414062500001E-5,48,67,47,7405,4679,1189,878,1007,1806,1187,800,Tag0,unknown
1500020099249,0,38,8.349609375E-6,48,67,47,7405,4679,1189,878,1007,1806,1187,800,Tag0,unknown
1500020099260,0,28,6.15234375E-6,48,67,47,7405,4679,1189,878,1007,1806,1187,800,Tag0,unknown
1500020099261,0,28,6.15234375E-6,48,67,47,7405,4679,1189,878,1007,1806,1187,800,Tag0,unknown
1500020099262,0,24,5.2734375E-6,48,67,47,7405,4679,1189,878,1007,1806,1187,800,Tag0,unknown
1500020099263,0,6,1.318359375E-6,48,67,47,7405,4679,1189,878,1007,1806,1187,800,Tag0,unknown
1500020099263,0,20,4.39453125E-6,48,67,47,7405,4679,1189,878,1007,1806,1187,800,Tag0,unknown
1500020099264,0,68,1.4941406250000001E-5,48,67,47,7405,4679,1189,878,1007,1806,1187,800,Tag0,unknown
1500020099265,0,106,2.3291015625000003E-5,48,67,47,7405,4679,1189,878,1007,1806,1187,800,Tag0,unknown
1500020099265,0,112,2.4609375E-5,48,67,47,7405,4679,1189,878,1007,1806,1187,800,Tag0,unknown
1500020099266,0,87,1.91162109375E-5,48,67,47,7405,4679,1189,878,1007,1806,1187,800,Tag0,unknown
1500020099267,0,65,1.42822265625E-5,48,67,47,7405,4679,1189,878,1007,1806,1187,800,Tag0,unknown
1500020099268,0,69,1.51611328125E-5,67,75,47,9852,13635,13367,11865,7157,13665,15235,1511,Tag0,unknown
1500020099269,0,97,2.13134765625E-5,67,75,47,9852,13635,13367,11865,7157,13665,15235,1511,Tag0,unknown
1500020099269,0,113,2.48291015625E-5,67,75,47,9852,13635,13367,11865,7157,13665,15235,1511,Tag0,unknown
1500020099269,0,101,2.2192382812500002E-5,67,75,47,9852,13635,13367,11865,7157,13665,15235,1511,Tag0,unknown
1500020099270,0,74,1.6259765625E-5,67,75,47,9852,13635,13367,11865,7157,13665,15235,1511,Tag0,unknown
1500020099285,0,44,9.66796875E-6,67,75,47,9852,13635,13367,11865,7157,13665,15235,1511,Tag0,unknown
1500020099294,0,41,9.008789062499999E-6,67,75,47,9852,13635,13367,11865,7157,13665,15235,1511,Tag0,unknown
1500020099294,0,66,1.4501953125E-5,67,75,47,9852,13635,13367,11865,7157,13665,15235,1511,Tag0,unknown
1500020099295,0,72,1.58203125E-5,67,75,47,9852,13635,13367,11865,7157,13665,15235,1511,Tag0,unknown
1500020099295,0,72,1.58203125E-5,67,75,47,9852,13635,13367,11865,7157,13665,15235,1511,Tag0,unknown
1500020099296,0,82,1.8017578124999998E-5,67,75,47,9852,13635,13367,11865,7157,13665,15235,1511,Tag0,unknown
1500020099297,0,75,1.64794921875E-5,67,75,47,9852,13635,13367,11865,7157,13665,15235,1511,Tag0,unknown
1500020099297,0,59,1.29638671875E-5,67,75,47,9852,13635,13367,11865,7157,13665,15235,1511,Tag0,unknown
1500020099298,0,49,1.07666015625E-5,67,75,47,9852,13635,13367,11865,7157,13665,15235,1511,Tag0,unknown
1500020099298,0,49,1.07666015625E-5,67,75,47,9852,13635,13367,11865,7157,13665,15235,1511,Tag0,unknown
1500020099299,0,75,1.64794921875E-5,67,75,47,9852,13635,13367,11865,7157,13665,15235,1511,Tag0,unknown
1500020099299,0,121,2.6586914062500003E-5,67,75,47,9852,13635,13367,11865,7157,13665,15235,1511,Tag0,unknown
1500020099300,0,125,2.74658203125E-5,67,75,47,9852,13635,13367,11865,7157,13665,15235,1511,Tag0,unknown
1500020099300,0,84,1.8457031250000004E-5,67,75,47,9852,13635,13367,11865,7157,13665,15235,1511,Tag0,unknown
1500020099300,0,57,1.2524414062500001E-5,67,75,47,9852,13635,13367,11865,7157,13665,15235,1511,Tag0,unknown
1500020099300,0,73,1.6040039062500002E-5,67,75,47,9852,13635,13367,11865,7157,13665,15235,1511,Tag0,unknown
1500020099301,0,96,2.109375E-5,67,75,47,9852,13635,13367,11865,7157,13665,15235,1511,Tag0,unknown
1500020099301,0,96,2.109375E-5,67,75,47,9852,13635,13367,11865,7157,13665,15235,1511,Tag0,unknown
1500020099302,0,81,1.77978515625E-5,67,75,47,9852,13635,13367,11865,7157,13665,15235,1511,Tag0,unknown
1500020099303,0,66,1.4501953125E-5,67,75,47,9852,13635,13367,11865,7157,13665,15235,1511,Tag0,unknown
1500020099320,0,57,1.2524414062500001E-5,67,75,47,9852,13635,13367,11865,7157,13665,15235,1511,Tag0,unknown
1500020099327,0,48,1.0546875E-5,67,75,47,9852,13635,13367,11865,7157,13665,15235,1511,Tag0,unknown
1500020099327,0,26,5.712890625E-6,67,75,47,9852,13635,13367,11865,7157,13665,15235,1511,Tag0,unknown
1500020099328,0,13,2.8564453125E-6,67,75,47,9852,13635,13367,11865,7157,13665,15235,1511,Tag0,unknown
1500020099328,0,19,4.1748046875E-6,67,75,47,9852,13635,13367,11865,7157,13665,15235,1511,Tag0,unknown
1500020099329,0,32,7.03125E-6,67,75,47,9852,13635,13367,11865,7157,13665,15235,1511,Tag0,unknown
1500020099329,0,33,7.2509765625E-6,67,75,47,9852,13635,13367,11865,7157,13665,15235,1511,Tag0,unknown
1500020099330,0,35,7.6904296875E-6,67,75,47,9852,13635,13367,11865,7157,13665,15235,1511,Tag0,unknown
1500020099330,0,52,1.142578125E-5,67,75,47,9852,13635,13367,11865,7157,13665,15235,1511,Tag0,unknown
1500020099331,0,71,1.56005859375E-5,67,75,47,9852,13635,13367,11865,7157,13665,15235,1511,Tag0,unknown
1500020099331,0,72,1.58203125E-5,67,75,47,9852,13635,13367,11865,7157,13665,15235,1511,Tag0,unknown
1500020099332,0,57,1.2524414062500001E-5,67,75,47,9852,13635,13367,11865,7157,13665,15235,1511,Tag0,unknown
1500020099332,0,52,1.142578125E-5,67,75,47,9852,13635,13367,11865,7157,13665,15235,1511,Tag0,unknown
1500020099333,0,59,1.29638671875E-5,67,75,47,9852,13635,13367,11865,7157,13665,15235,1511,Tag0,unknown
1500020099333,0,72,1.58203125E-5,67,75,47,9852,13635,13367,11865,7157,13665,15235,1511,Tag0,unknown
1500020099333,0,74,1.6259765625E-5,67,75,47,9852,13635,13367,11865,7157,13665,15235,1511,Tag0,unknown
1500020099333,0,74,1.6259765625E-5,67,75,47,9852,13635,13367,11865,7157,13665,15235,1511,Tag0,unknown
1500020099333,0,81,1.77978515625E-5,67,75,47,9852,13635,13367,11865,7157,13665,15235,1511,Tag0,unknown
1500020099334,0,84,1.8457031250000004E-5,67,75,47,9852,13635,13367,11865,7157,13665,15235,1511,Tag0,unknown
1500020099334,0,84,1.8457031250000004E-5,67,75,47,9852,13635,13367,11865,7157,13665,15235,1511,Tag0,unknown
1500020099357,0,75,1.64794921875E-5,67,75,47,9852,13635,13367,11865,7157,13665,15235,1511,Tag0,unknown
1500020099361,0,50,1.0986328125E-5,67,75,47,9852,13635,13367,11865,7157,13665,15235,1511,Tag0,unknown
1500020099362,0,25,5.4931640625E-6,67,75,47,9852,13635,13367,11865,7157,13665,15235,1511,Tag0,unknown
1500020099363,0,19,4.1748046875E-6,67,75,47,9852,13635,13367,11865,7157,13665,15235,1511,Tag0,unknown
1500020099363,0,21,4.614257812500001E-6,67,75,47,9852,13635,13367,11865,7157,13665,15235,1511,Tag0,unknown
1500020099364,0,39,8.5693359375E-6,67,75,47,9852,13635,13367,11865,7157,13665,15235,1511,Tag0,unknown
1500020099365,0,61,1.34033203125E-5,67,75,47,9852,13635,13367,11865,7157,13665,15235,1511,Tag0,unknown
1500020099365,0,80,1.7578125E-5,67,75,47,9852,13635,13367,11865,7157,13665,15235,1511,Tag0,unknown
1500020099366,0,87,1.91162109375E-5,67,75,47,9852,13635,13367,11865,7157,13665,15235,1511,Tag0,unknown
1500020099367,0,88,1.93359375E-5,67,75,47,9852,13635,13367,11865,7157,13665,15235,1511,Tag0,unknown
1500020099368,0,70,1.5380859375E-5,67,75,47,9852,13635,13367,11865,7157,13665,15235,1511,Tag0,unknown
1500020099368,0,51,1.1206054687499999E-5,67,75,47,9852,13635,13367,11865,7157,13665,15235,1511,Tag0,unknown
1500020099369,0,57,1.2524414062500001E-5,67,75,47,9852,13635,13367,11865,7157,13665,15235,1511,Tag0,unknown
1500020099370,0,74,1.6259765625E-5,67,75,47,9852,13635,13367,11865,7157,13665,15235,1511,Tag0,unknown
1500020099370,0,82,1.8017578124999998E-5,67,75,47,9852,13635,13367,11865,7157,13665,15235,1511,Tag0,unknown
1500020099371,0,67,1.4721679687500002E-5,67,75,47,9852,13635,13367,11865,7157,13665,15235,1511,Tag0,unknown
1500020099372,0,43,9.448242187500001E-6,67,75,47,9852,13635,13367,11865,7157,13665,15235,1511,Tag0,unknown
1500020099379,0,56,1.23046875E-5,67,75,47,9852,13635,13367,11865,7157,13665,15235,1511,Tag0,unknown
1500020099379,0,89,1.95556640625E-5,67,75,47,9852,13635,13367,11865,7157,13665,15235,1511,Tag0,unknown
1500020099380,0,96,2.109375E-5,67,75,47,9852,13635,13367,11865,7157,13665,15235,1511,Tag0,unknown
1500020099396,0,84,1.8457031250000004E-5,67,75,47,9852,13635,13367,11865,7157,13665,15235,1511,Tag0,unknown
1500020099397,0,87,1.91162109375E-5,67,75,47,9852,13635,13367,11865,7157,13665,15235,1511,Tag0,unknown
1500020099397,0,106,2.3291015625000003E-5,67,75,47,9852,13635,13367,11865,7157,13665,15235,1511,Tag0,unknown
1500020099398,0,119,2.6147460937500004E-5,67,75,47,9852,13635,13367,11865,7157,13665,15235,1511,Tag0,unknown
1500020099399,0,113,2.48291015625E-5,67,75,47,9852,13635,13367,11865,7157,13665,15235,1511,Tag0,unknown
1500020099399,0,97,2.13134765625E-5,67,75,47,9852,13635,13367,11865,7157,13665,15235,1511,Tag0,unknown
1500020099400,0,81,1.77978515625E-5,67,75,47,9852,13635,13367,11865,7157,13665,15235,1511,Tag0,unknown
1500020099401,0,86,1.8896484375000003E-5,67,75,47,9852,13635,13367,11865,7157,13665,15235,1511,Tag0,unknown
1500020099412,0,102,2.2412109374999998E-5,67,75,47,9852,13635,13367,11865,7157,13665,15235,1511,Tag0,unknown
1500020099413,0,99,2.1752929687500003E-5,67,75,47,9852,13635,13367,11865,7157,13665,15235,1511,Tag0,unknown
1500020099413,0,85,1.86767578125E-5,67,75,47,9852,13635,13367,11865,7157,13665,15235,1511,Tag0,unknown
1500020099414,0,77,1.69189453125E-5,67,75,47,9852,13635,13367,11865,7157,13665,15235,1511,Tag0,unknown
1500020099415,0,70,1.5380859375E-5,67,75,47,9852,13635,13367,11865,7157,13665,15235,1511,Tag0,unknown
1500020099416,0,56,1.23046875E-5,67,75,47,9852,13635,13367,11865,7157,13665,15235,1511,Tag0,unknown
1500020099416,0,58,1.2744140625E-5,67,75,47,9852,13635,13367,11865,7157,13665,15235,1511,Tag0,unknown
1500020099417,0,61,1.34033203125E-5,67,75,47,9852,13635,13367,11865,7157,13665,15235,1511,Tag0,unknown
1500020099417,0,52,1.142578125E-5,67,75,47,9852,13635,13367,11865,7157,13665,15235,1511,Tag0,unknown
1500020099418,0,41,9.008789062499999E-6,67,75,47,9852,13635,13367,11865,7157,13665,15235,1511,Tag0,unknown
1500020099419,0,51,1.1206054687499999E-5,67,75,47,9852,13635,13367,11865,7157,13665,15235,1511,Tag0,unknown
1500020099419,0,58,1.2744140625E-5,67,75,47,9852,13635,13367,11865,7157,13665,15235,1511,Tag0,unknown
1500020099429,0,53,1.1645507812500002E-5,67,75,47,9852,13635,13367,11865,7157,13665,15235,1511,Tag0,unknown
1500020099430,0,43,9.448242187500001E-6,67,75,47,9852,13635,13367,11865,7157,13665,15235,1511,Tag0,unknown
1500020099431,0,41,9.008789062499999E-6,67,75,47,9852,13635,13367,11865,7157,13665,15235,1511,Tag0,unknown
1500020099432,0,40,8.7890625E-6,67,75,47,9852,13635,13367,11865,7157,13665,15235,1511,Tag0,unknown
1500020099432,0,26,5.712890625E-6,67,75,47,9852,13635,13367,11865,7157,13665,15235,1511,Tag0,unknown
1500020099446,0,26,5.712890625E-6,67,75,47,9852,13635,13367,11865,7157,13665,15235,1511,Tag0,unknown
1500020099447,0,35,7.6904296875E-6,67,75,47,9852,13635,13367,11865,7157,13665,15235,1511,Tag0,unknown
1500020099447,0,35,7.6904296875E-6,67,75,47,9852,13635,13367,11865,7157,13665,15235,1511,Tag0,unknown
1500020099448,0,51,1.1206054687499999E-5,67,75,47,9852,13635,13367,11865,7157,13665,15235,1511,Tag0,unknown
1500020099449,0,59,1.29638671875E-5,67,75,47,9852,13635,13367,11865,7157,13665,15235,1511,Tag0,unknown
1500020099463,0,68,1.4941406250000001E-5,67,75,47,9852,13635,13367,11865,7157,13665,15235,1511,Tag0,unknown
1500020099464,0,80,1.7578125E-5,67,75,47,9852,13635,13367,11865,7157,13665,15235,1511,Tag0,unknown
1500020099464,0,90,1.9775390625E-5,67,75,47,9852,13635,13367,11865,7157,13665,15235,1511,Tag0,unknown
1500020099465,0,96,2.109375E-5,67,75,47,9852,13635,13367,11865,7157,13665,15235,1511,Tag0,unknown
1500020099466,0,82,1.8017578124999998E-5,67,75,47,9852,13635,13367,11865,7157,13665,15235,1511,Tag0,unknown
1500020099466,0,55,1.20849609375E-5,67,75,47,9852,13635,13367,11865,7157,13665,15235,1511,Tag0,unknown
1500020099467,0,43,9.448242187500001E-6,67,75,47,9852,13635,13367,11865,7157,13665,15235,1511,Tag0,unknown
1500020099468,0,42,9.228515625000002E-6,67,75,47,9852,13635,13367,11865,7157,13665,15235,1511,Tag0,unknown
1500020099469,0,54,1.1865234375000001E-5,67,75,47,9852,13635,13367,11865,7157,13665,15235,1511,Tag0,unknown
1500020099469,0,69,1.51611328125E-5,67,75,47,9852,13635,13367,11865,7157,13665,15235,1511,Tag0,unknown
1500020099486,0,67,1.4721679687500002E-5,67,75,47,9852,13635,13367,11865,7157,13665,15235,1511,Tag0,unknown
1500020099497,0,52,1.142578125E-5,67,75,47,9852,13635,13367,11865,7157,13665,15235,1511,Tag0,unknown
1500020099498,0,48,1.0546875E-5,67,75,47,9852,13635,13367,11865,7157,13665,15235,1511,Tag0,unknown
1500020099498,0,64,1.40625E-5,67,75,47,9852,13635,13367,11865,7157,13665,15235,1511,Tag0,unknown
1500020099499,0,60,1.318359375E-5,67,75,47,9852,13635,13367,11865,7157,13665,15235,1511,Tag0,unknown
1500020099499,0,40,8.7890625E-6,67,75,47,9852,13635,13367,11865,7157,13665,15235,1511,Tag0,unknown
1500020099500,0,27,5.9326171875000005E-6,67,75,47,9852,13635,13367,11865,7157,13665,15235,1511,Tag0,unknown
1500020099501,0,37,8.1298828125E-6,67,75,47,9852,13635,13367,11865,7157,13665,15235,1511,Tag0,unknown
1500020099502,0,56,1.23046875E-5,67,75,47,9852,13635,13367,11865,7157,13665,15235,1511,Tag0,unknown
1500020099503,0,71,1.56005859375E-5,67,75,47,9852,13635,13367,11865,7157,13665,15235,1511,Tag0,unknown
1500020099503,0,76,1.669921875E-5,67,75,47,9852,13635,13367,11865,7157,13665,15235,1511,Tag0,unknown
1500020099504,0,88,1.93359375E-5,67,75,47,9852,13635,13367,11865,7157,13665,15235,1511,Tag0,unknown
1500020099505,0,87,1.91162109375E-5,67,75,47,9852,13635,13367,11865,7157,13665,15235,1511,Tag0,unknown
1500020099505,0,86,1.8896484375000003E-5,67,75,47,9852,13635,13367,11865,7157,13665,15235,1511,Tag0,unknown
1500020099505,0,80,1.7578125E-5,67,75,47,9852,13635,13367,11865,7157,13665,15235,1511,Tag0,unknown
1500020099506,0,65,1.42822265625E-5,67,75,47,9852,13635,13367,11865,7157,13665,15235,1511,Tag0,unknown
1500020099506,0,67,1.4721679687500002E-5,67,75,47,9852,13635,13367,11865,7157,13665,15235,1511,Tag0,unknown
1500020099507,0,80,1.7578125E-5,67,75,47,9852,13635,13367,11865,7157,13665,15235,1511,Tag0,unknown
1500020099508,0,86,1.8896484375000003E-5,67,75,47,9852,13635,13367,11865,7157,13665,15235,1511,Tag0,unknown
1500020099508,0,86,1.8896484375000003E-5,67,75,47,9852,13635,13367,11865,7157,13665,15235,1511,Tag0,unknown
1500020099520,0,80,1.7578125E-5,67,75,47,9852,13635,13367,11865,7157,13665,15235,1511,Tag0,unknown
1500020099530,0,64,1.40625E-5,67,75,47,9852,13635,13367,11865,7157,13665,15235,1511,Tag0,unknown
1500020099531,0,48,1.0546875E-5,67,75,47,9852,13635,13367,11865,7157,13665,15235,1511,Tag0,unknown
1500020099532,0,29,6.3720703125E-6,67,75,47,9852,13635,13367,11865,7157,13665,15235,1511,Tag0,unknown
1500020099532,0,28,6.15234375E-6,67,75,47,9852,13635,13367,11865,7157,13665,15235,1511,Tag0,unknown
1500020099533,0,39,8.5693359375E-6,67,75,47,9852,13635,13367,11865,7157,13665,15235,1511,Tag0,unknown
1500020099534,0,56,1.23046875E-5,67,75,47,9852,13635,13367,11865,7157,13665,15235,1511,Tag0,unknown
1500020099534,0,65,1.42822265625E-5,67,75,47,9852,13635,13367,11865,7157,13665,15235,1511,Tag0,unknown
1500020099535,0,67,1.4721679687500002E-5,67,75,47,9852,13635,13367,11865,7157,13665,15235,1511,Tag0,unknown
1500020099536,0,70,1.5380859375E-5,67,75,47,9852,13635,13367,11865,7157,13665,15235,1511,Tag0,unknown
1500020099537,0,67,1.4721679687500002E-5,67,75,47,9852,13635,13367,11865,7157,13665,15235,1511,Tag0,unknown
1500020099537,0,57,1.2524414062500001E-5,67,75,47,9852,13635,13367,11865,7157,13665,15235,1511,Tag0,unknown
1500020099538,0,55,1.20849609375E-5,67,75,47,9852,13635,13367,11865,7157,13665,15235,1511,Tag0,unknown
1500020099538,0,57,1.2524414062500001E-5,67,75,47,9852,13635,13367,11865,7157,13665,15235,1511,Tag0,unknown
1500020099539,0,57,1.2524414062500001E-5,67,75,47,9852,13635,13367,11865,7157,13665,15235,1511,Tag0,unknown
1500020099540,0,55,1.20849609375E-5,67,75,47,9852,13635,13367,11865,7157,13665,15235,1511,Tag0,unknown
1500020099540,0,48,1.0546875E-5,67,75,47,9852,13635,13367,11865,7157,13665,15235,1511,Tag0,unknown
1500020099543,0,51,1.1206054687499999E-5,67,75,47,9852,13635,13367,11865,7157,13665,15235,1511,Tag0,unknown
1500020099544,0,56,1.23046875E-5,67,75,47,9852,13635,13367,11865,7157,13665,15235,1511,Tag0,unknown
1500020099545,0,66,1.4501953125E-5,67,75,47,9852,13635,13367,11865,7157,13665,15235,1511,Tag0,unknown
1500020099557,0,72,1.58203125E-5,67,75,47,9852,13635,13367,11865,7157,13665,15235,1511,Tag0,unknown
1500020099563,0,66,1.4501953125E-5,67,75,47,9852,13635,13367,11865,7157,13665,15235,1511,Tag0,unknown
1500020099564,0,52,1.142578125E-5,67,75,47,9852,13635,13367,11865,7157,13665,15235,1511,Tag0,unknown
1500020099564,0,55,1.20849609375E-5,67,75,47,9852,13635,13367,11865,7157,13665,15235,1511,Tag0,unknown
1500020099565,0,75,1.64794921875E-5,67,75,47,9852,13635,13367,11865,7157,13665,15235,1511,Tag0,unknown
1500020099565,0,87,1.91162109375E-5,67,75,47,9852,13635,13367,11865,7157,13665,15235,1511,Tag0,unknown
1500020099566,0,89,1.95556640625E-5,67,75,47,9852,13635,13367,11865,7157,13665,15235,1511,Tag0,unknown
1500020099566,0,89,1.95556640625E-5,67,75,47,9852,13635,13367,11865,7157,13665,15235,1511,Tag0,unknown
1500020099567,0,90,1.9775390625E-5,67,75,47,9852,13635,13367,11865,7157,13665,15235,1511,Tag0,unknown
1500020099568,0,88,1.93359375E-5,67,75,47,9852,13635,13367,11865,7157,13665,15235,1511,Tag0,unknown
1500020099568,0,73,1.6040039062500002E-5,67,75,47,9852,13635,13367,11865,7157,13665,15235,1511,Tag0,unknown
1500020099569,0,59,1.29638671875E-5,67,75,47,9852,13635,13367,11865,7157,13665,15235,1511,Tag0,unknown
1500020099569,0,56,1.23046875E-5,67,75,47,9852,13635,13367,11865,7157,13665,15235,1511,Tag0,unknown
1500020099569,0,50,1.0986328125E-5,67,75,47,9852,13635,13367,11865,7157,13665,15235,1511,Tag0,unknown
1500020099570,0,54,1.1865234375000001E-5,67,75,47,9852,13635,13367,11865,7157,13665,15235,1511,Tag0,unknown
1500020099570,0,69,1.51611328125E-5,67,75,47,9852,13635,13367,11865,7157,13665,15235,1511,Tag0,unknown
1500020099570,0,71,1.56005859375E-5,67,75,47,9852,13635,13367,11865,7157,13665,15235,1511,Tag0,unknown
1500020099570,0,67,1.4721679687500002E-5,67,75,47,9852,13635,13367,11865,7157,13665,15235,1511,Tag0,unknown
1500020099571,0,64,1.40625E-5,67,75,47,9852,13635,13367,11865,7157,13665,15235,1511,Tag0,unknown
1500020099571,0,67,1.4721679687500002E-5,67,75,47,9852,13635,13367,11865,7157,13665,15235,1511,Tag0,unknown
1500020099594,0,68,1.4941406250000001E-5,67,75,47,9852,13635,13367,11865,7157,13665,15235,1511,Tag0,unknown
1500020099595,0,67,1.4721679687500002E-5,67,75,47,9852,13635,13367,11865,7157,13665,15235,1511,Tag0,unknown
1500020099614,0,75,1.64794921875E-5,67,75,47,9852,13635,13367,11865,7157,13665,15235,1511,Tag0,unknown
1500020099615,0,87,1.91162109375E-5,67,75,47,9852,13635,13367,11865,7157,13665,15235,1511,Tag0,unknown
1500020099615,0,91,1.99951171875E-5,67,75,47,9852,13635,13367,11865,7157,13665,15235,1511,Tag0,unknown
1500020099616,0,85,1.86767578125E-5,67,75,47,9852,13635,13367,11865,7157,13665,15235,1511,Tag0,unknown
1500020099617,0,84,1.8457031250000004E-5,67,75,47,9852,13635,13367,11865,7157,13665,15235,1511,Tag0,unknown
1500020099618,0,92,2.021484375E-5,67,75,47,9852,13635,13367,11865,7157,13665,15235,1511,Tag0,unknown
1500020099618,0,90,1.9775390625E-5,67,75,47,9852,13635,13367,11865,7157,13665,15235,1511,Tag0,unknown
1500020099619,0,74,1.6259765625E-5,67,75,47,9852,13635,13367,11865,7157,13665,15235,1511,Tag0,unknown
1500020099620,0,70,1.5380859375E-5,67,75,47,9852,13635,13367,11865,7157,13665,15235,1511,Tag0,unknown
1500020099620,0,69,1.51611328125E-5,67,75,47,9852,13635,13367,11865,7157,13665,15235,1511,Tag0,unknown
1500020099621,0,66,1.4501953125E-5,67,75,47,9852,13635,13367,11865,7157,13665,15235,1511,Tag0,unknown
1500020099622,0,65,1.42822265625E-5,67,75,47,9852,13635,13367,11865,7157,13665,15235,1511,Tag0,unknown
1500020099622,0,58,1.2744140625E-5,67,75,47,9852,13635,13367,11865,7157,13665,15235,1511,Tag0,unknown
1500020099623,0,57,1.2524414062500001E-5,67,75,47,9852,13635,13367,11865,7157,13665,15235,1511,Tag0,unknown
1500020099624,0,49,1.07666015625E-5,67,75,47,9852,13635,13367,11865,7157,13665,15235,1511,Tag0,unknown
1500020099624,0,37,8.1298828125E-6,67,75,47,9852,13635,13367,11865,7157,13665,15235,1511,Tag0,unknown
1500020099625,0,39,8.5693359375E-6,67,75,47,9852,13635,13367,11865,7157,13665,15235,1511,Tag0,unknown
1500020099625,0,39,8.5693359375E-6,67,75,47,9852,13635,13367,11865,7157,13665,15235,1511,Tag0,unknown
1500020099632,0,38,8.349609375E-6,67,75,47,9852,13635,13367,11865,7157,13665,15235,1511,Tag0,unknown
1500020099633,0,48,1.0546875E-5,67,75,47,9852,13635,13367,11865,7157,13665,15235,1511,Tag0,unknown
1500020099633,0,41,9.008789062499999E-6,67,75,47,9852,13635,13367,11865,7157,13665,15235,1511,Tag0,unknown
1500020099634,0,26,5.712890625E-6,67,75,47,9852,13635,13367,11865,7157,13665,15235,1511,Tag0,unknown
1500020099635,0,16,3.515625E-6,67,75,47,9852,13635,13367,11865,7157,13665,15235,1511,Tag0,unknown
1500020099635,0,7,1.5380859375E-6,67,75,47,9852,13635,13367,11865,7157,13665,15235,1511,Tag0,unknown
1500020099636,0,12,2.63671875E-6,67,75,47,9852,13635,13367,11865,7157,13665,15235,1511,Tag0,unknown
1500020099637,0,28,6.15234375E-6,67,75,47,9852,13635,13367,11865,7157,13665,15235,1511,Tag0,unknown
1500020099638,0,49,1.07666015625E-5,67,75,47,9852,13635,13367,11865,7157,13665,15235,1511,Tag0,unknown
1500020099648,0,64,1.40625E-5,67,75,47,9852,13635,13367,11865,7157,13665,15235,1511,Tag0,unknown
1500020099649,0,68,1.4941406250000001E-5,67,75,47,9852,13635,13367,11865,7157,13665,15235,1511,Tag0,unknown
1500020099649,0,76,1.669921875E-5,67,75,47,9852,13635,13367,11865,7157,13665,15235,1511,Tag0,unknown
1500020099650,0,84,1.8457031250000004E-5,67,75,47,9852,13635,13367,11865,7157,13665,15235,1511,Tag0,unknown
1500020099651,0,86,1.8896484375000003E-5,67,75,47,9852,13635,13367,11865,7157,13665,15235,1511,Tag0,unknown
1500020099652,0,98,2.1533203125E-5,67,75,47,9852,13635,13367,11865,7157,13665,15235,1511,Tag0,unknown
1500020099653,0,107,2.35107421875E-5,67,75,47,9852,13635,13367,11865,7157,13665,15235,1511,Tag0,unknown
1500020099653,0,91,1.99951171875E-5,67,75,47,9852,13635,13367,11865,7157,13665,15235,1511,Tag0,unknown
1500020099654,0,58,1.2744140625E-5,67,75,47,9852,13635,13367,11865,7157,13665,15235,1511,Tag0,unknown
1500020099655,0,56,1.23046875E-5,67,75,47,9852,13635,13367,11865,7157,13665,15235,1511,Tag0,unknown
1500020099656,0,77,1.69189453125E-5,67,75,47,9852,13635,13367,11865,7157,13665,15235,1511,Tag0,unknown
1500020099666,0,93,2.04345703125E-5,67,75,47,9852,13635,13367,11865,7157,13665,15235,1511,Tag0,unknown
1500020099681,0,104,2.28515625E-5,67,75,47,9852,13635,13367,11865,7157,13665,15235,1511,Tag0,unknown
1500020099682,0,100,2.197265625E-5,67,75,47,9852,13635,13367,11865,7157,13665,15235,1511,Tag0,unknown
1500020099683,0,71,1.56005859375E-5,67,75,47,9852,13635,13367,11865,7157,13665,15235,1511,Tag0,unknown
1500020099683,0,44,9.66796875E-6,67,75,47,9852,13635,13367,11865,7157,13665,15235,1511,Tag0,unknown
1500020099684,0,48,1.0546875E-5,67,75,47,9852,13635,13367,11865,7157,13665,15235,1511,Tag0,unknown
1500020099685,0,73,1.6040039062500002E-5,67,75,47,9852,13635,13367,11865,7157,13665,15235,1511,Tag0,unknown
1500020099686,0,101,2.2192382812500002E-5,67,75,47,9852,13635,13367,11865,7157,13665,15235,1511,Tag0,unknown
1500020099686,0,100,2.197265625E-5,67,75,47,9852,13635,13367,11865,7157,13665,15235,1511,Tag0,unknown
1500020099687,0,71,1.56005859375E-5,67,75,47,9852,13635,13367,11865,7157,13665,15235,1511,Tag0,unknown
1500020099688,0,40,8.7890625E-6,67,75,47,9852,13635,13367,11865,7157,13665,15235,1511,Tag0,unknown
1500020099688,0,51,1.1206054687499999E-5,67,75,47,9852,13635,13367,11865,7157,13665,15235,1511,Tag0,unknown
1500020099689,0,84,1.8457031250000004E-5,67,75,47,9852,13635,13367,11865,7157,13665,15235,1511,Tag0,unknown
1500020099689,0,96,2.109375E-5,67,75,47,9852,13635,13367,11865,7157,13665,15235,1511,Tag0,unknown
1500020099690,0,75,1.64794921875E-5,67,75,47,9852,13635,13367,11865,7157,13665,15235,1511,Tag0,unknown
1500020099691,0,52,1.142578125E-5,67,75,47,9852,13635,13367,11865,7157,13665,15235,1511,Tag0,unknown
1500020099692,0,39,8.5693359375E-6,67,75,47,9852,13635,13367,11865,7157,13665,15235,1511,Tag0,unknown
1500020099692,0,38,8.349609375E-6,67,75,47,9852,13635,13367,11865,7157,13665,15235,1511,Tag0,unknown
1500020099693,0,59,1.29638671875E-5,67,75,47,9852,13635,13367,11865,7157,13665,15235,1511,Tag0,unknown
1500020099693,0,89,1.95556640625E-5,67,75,47,9852,13635,13367,11865,7157,13665,15235,1511,Tag0,unknown
1500020099706,0,105,2.30712890625E-5,67,75,47,9852,13635,13367,11865,7157,13665,15235,1511,Tag0,unknown
1500020099716,0,90,1.9775390625E-5,67,75,47,9852,13635,13367,11865,7157,13665,15235,1511,Tag0,unknown
1500020099716,0,56,1.23046875E-5,67,75,47,9852,13635,13367,11865,7157,13665,15235,1511,Tag0,unknown
1500020099717,0,43,9.448242187500001E-6,67,75,47,9852,13635,13367,11865,7157,13665,15235,1511,Tag0,unknown
1500020099718,0,53,1.1645507812500002E-5,67,75,47,9852,13635,13367,11865,7157,13665,15235,1511,Tag0,unknown
1500020099719,0,58,1.2744140625E-5,67,75,47,9852,13635,13367,11865,7157,13665,15235,1511,Tag0,unknown
1500020099719,0,64,1.40625E-5,67,75,47,9852,13635,13367,11865,7157,13665,15235,1511,Tag0,unknown
1500020099720,0,74,1.6259765625E-5,67,75,47,9852,13635,13367,11865,7157,13665,15235,1511,Tag0,unknown
1500020099721,0,74,1.6259765625E-5,67,75,47,9852,13635,13367,11865,7157,13665,15235,1511,Tag0,unknown
1500020099721,0,80,1.7578125E-5,67,75,47,9852,13635,13367,11865,7157,13665,15235,1511,Tag0,unknown
1500020099722,0,90,1.9775390625E-5,67,75,47,9852,13635,13367,11865,7157,13665,15235,1511,Tag0,unknown
1500020099723,0,106,2.3291015625000003E-5,67,75,47,9852,13635,13367,11865,7157,13665,15235,1511,Tag0,unknown
1500020099724,0,-127,-2.79052734375E-5,67,75,47,9852,13635,13367,11865,7157,13665,15235,1511,Tag0,unknown
1500020099724,0,-126,-2.7685546875E-5,67,75,47,9852,13635,13367,11865,7157,13665,15235,1511,Tag0,unknown
1500020099725,0,108,2.3730468750000002E-5,67,75,47,9852,13635,13367,11865,7157,13665,15235,1511,Tag0,unknown
1500020099725,0,86,1.8896484375000003E-5,67,75,47,9852,13635,13367,11865,7157,13665,15235,1511,Tag0,unknown
1500020099726,0,77,1.69189453125E-5,67,75,47,9852,13635,13367,11865,7157,13665,15235,1511,Tag0,unknown
1500020099726,0,100,2.197265625E-5,67,75,47,9852,13635,13367,11865,7157,13665,15235,1511,Tag0,unknown
1500020099726,0,116,2.548828125E-5,67,75,47,9852,13635,13367,11865,7157,13665,15235,1511,Tag0,unknown
1500020099727,0,118,2.5927734375E-5,67,75,47,9852,13635,13367,11865,7157,13665,15235,1511,Tag0,unknown
1500020099743,0,98,2.1533203125E-5,67,75,47,9852,13635,13367,11865,7157,13665,15235,1511,Tag0,unknown
1500020099749,0,71,1.56005859375E-5,67,75,47,9852,13635,13367,11865,7157,13665,15235,1511,Tag0,unknown
1500020099750,0,64,1.40625E-5,67,75,47,9852,13635,13367,11865,7157,13665,15235,1511,Tag0,unknown
1500020099750,0,68,1.4941406250000001E-5,67,75,47,9852,13635,13367,11865,7157,13665,15235,1511,Tag0,unknown
1500020099751,0,64,1.40625E-5,67,75,47,9852,13635,13367,11865,7157,13665,15235,1511,Tag0,unknown
1500020099752,0,60,1.318359375E-5,67,75,47,9852,13635,13367,11865,7157,13665,15235,1511,Tag0,unknown
1500020099753,0,57,1.2524414062500001E-5,67,75,47,9852,13635,13367,11865,7157,13665,15235,1511,Tag0,unknown
1500020099754,0,51,1.1206054687499999E-5,67,75,47,9852,13635,13367,11865,7157,13665,15235,1511,Tag0,unknown
1500020099754,0,57,1.2524414062500001E-5,67,75,47,9852,13635,13367,11865,7157,13665,15235,1511,Tag0,unknown
1500020099755,0,60,1.318359375E-5,67,75,47,9852,13635,13367,11865,7157,13665,15235,1511,Tag0,unknown
1500020099766,0,50,1.0986328125E-5,67,75,47,9852,13635,13367,11865,7157,13665,15235,1511,Tag0,unknown
1500020099767,0,52,1.142578125E-5,67,75,47,9852,13635,13367,11865,7157,13665,15235,1511,Tag0,unknown
1500020099767,0,81,1.77978515625E-5,67,75,47,9852,13635,13367,11865,7157,13665,15235,1511,Tag0,unknown
1500020099768,0,87,1.91162109375E-5,67,75,47,9852,13635,13367,11865,7157,13665,15235,1511,Tag0,unknown
1500020099769,0,60,1.318359375E-5,67,75,47,9852,13635,13367,11865,7157,13665,15235,1511,Tag0,unknown
1500020099769,0,44,9.66796875E-6,67,75,47,9852,13635,13367,11865,7157,13665,15235,1511,Tag0,unknown
1500020099770,0,56,1.23046875E-5,67,75,47,9852,13635,13367,11865,7157,13665,15235,1511,Tag0,unknown
1500020099771,0,72,1.58203125E-5,67,75,47,9852,13635,13367,11865,7157,13665,15235,1511,Tag0,unknown
1500020099772,0,72,1.58203125E-5,67,75,47,9852,13635,13367,11865,7157,13665,15235,1511,Tag0,unknown
1500020099773,0,74,1.6259765625E-5,67,75,47,9852,13635,13367,11865,7157,13665,15235,1511,Tag0,unknown
1500020099783,0,85,1.86767578125E-5,67,75,47,9852,13635,13367,11865,7157,13665,15235,1511,Tag0,unknown
1500020099799,0,89,1.95556640625E-5,67,75,47,9852,13635,13367,11865,7157,13665,15235,1511,Tag0,unknown
1500020099800,0,91,1.99951171875E-5,67,75,47,9852,13635,13367,11865,7157,13665,15235,1511,Tag0,unknown
1500020099801,0,85,1.86767578125E-5,67,75,47,9852,13635,13367,11865,7157,13665,15235,1511,Tag0,unknown
1500020099802,0,81,1.77978515625E-5,67,75,47,9852,13635,13367,11865,7157,13665,15235,1511,Tag0,unknown
1500020099803,0,90,1.9775390625E-5,67,75,47,9852,13635,13367,11865,7157,13665,15235,1511,Tag0,unknown
1500020099803,0,97,2.13134765625E-5,67,75,47,9852,13635,13367,11865,7157,13665,15235,1511,Tag0,unknown
1500020099804,0,74,1.6259765625E-5,67,75,47,9852,13635,13367,11865,7157,13665,15235,1511,Tag0,unknown
1500020099805,0,55,1.20849609375E-5,67,75,47,9852,13635,13367,11865,7157,13665,15235,1511,Tag0,unknown
1500020099805,0,48,1.0546875E-5,67,75,47,9852,13635,13367,11865,7157,13665,15235,1511,Tag0,unknown
1500020099806,0,41,9.008789062499999E-6,67,75,47,9852,13635,13367,11865,7157,13665,15235,1511,Tag0,unknown
1500020099807,0,40,8.7890625E-6,67,75,47,9852,13635,13367,11865,7157,13665,15235,1511,Tag0,unknown
1500020099808,0,40,8.7890625E-6,67,75,47,9852,13635,13367,11865,7157,13665,15235,1511,Tag0,unknown
1500020099808,0,42,9.228515625000002E-6,67,75,47,9852,13635,13367,11865,7157,13665,15235,1511,Tag0,unknown
1500020099808,0,50,1.0986328125E-5,67,75,47,9852,13635,13367,11865,7157,13665,15235,1511,Tag0,unknown
1500020099809,0,42,9.228515625000002E-6,67,75,47,9852,13635,13367,11865,7157,13665,15235,1511,Tag0,unknown
1500020099810,0,39,8.5693359375E-6,67,75,47,9852,13635,13367,11865,7157,13665,15235,1511,Tag0,unknown
1500020099810,0,54,1.1865234375000001E-5,67,75,47,9852,13635,13367,11865,7157,13665,15235,1511,Tag0,unknown
1500020099811,0,59,1.29638671875E-5,67,75,47,9852,13635,13367,11865,7157,13665,15235,1511,Tag0,unknown
1500020099811,0,54,1.1865234375000001E-5,67,75,47,9852,13635,13367,11865,7157,13665,15235,1511,Tag0,unknown
1500020099822,0,54,1.1865234375000001E-5,67,75,47,9852,13635,13367,11865,7157,13665,15235,1511,Tag0,unknown
1500020099833,0,58,1.2744140625E-5,67,75,47,9852,13635,13367,11865,7157,13665,15235,1511,Tag0,unknown
1500020099833,0,81,1.77978515625E-5,67,75,47,9852,13635,13367,11865,7157,13665,15235,1511,Tag0,unknown
1500020099834,0,108,2.3730468750000002E-5,67,75,47,9852,13635,13367,11865,7157,13665,15235,1511,Tag0,unknown
1500020099835,0,105,2.30712890625E-5,67,75,47,9852,13635,13367,11865,7157,13665,15235,1511,Tag0,unknown
1500020099835,0,84,1.8457031250000004E-5,67,75,47,9852,13635,13367,11865,7157,13665,15235,1511,Tag0,unknown
1500020099836,0,83,1.82373046875E-5,67,75,47,9852,13635,13367,11865,7157,13665,15235,1511,Tag0,unknown
1500020099837,0,87,1.91162109375E-5,67,75,47,9852,13635,13367,11865,7157,13665,15235,1511,Tag0,unknown
1500020099837,0,92,2.021484375E-5,67,75,47,9852,13635,13367,11865,7157,13665,15235,1511,Tag0,unknown
1500020099838,0,88,1.93359375E-5,67,75,47,9852,13635,13367,11865,7157,13665,15235,1511,Tag0,unknown
1500020099838,0,80,1.7578125E-5,67,75,47,9852,13635,13367,11865,7157,13665,15235,1511,Tag0,unknown
1500020099839,0,73,1.6040039062500002E-5,67,75,47,9852,13635,13367,11865,7157,13665,15235,1511,Tag0,unknown
1500020099840,0,60,1.318359375E-5,67,75,47,9852,13635,13367,11865,7157,13665,15235,1511,Tag0,unknown
1500020099840,0,44,9.66796875E-6,67,75,47,9852,13635,13367,11865,7157,13665,15235,1511,Tag0,unknown
1500020099840,0,37,8.1298828125E-6,67,75,47,9852,13635,13367,11865,7157,13665,15235,1511,Tag0,unknown
1500020099842,0,43,9.448242187500001E-6,67,75,47,9852,13635,13367,11865,7157,13665,15235,1511,Tag0,unknown
1500020099842,0,52,1.142578125E-5,67,75,47,9852,13635,13367,11865,7157,13665,15235,1511,Tag0,unknown
1500020099843,0,59,1.29638671875E-5,67,75,47,9852,13635,13367,11865,7157,13665,15235,1511,Tag0,unknown
1500020099843,0,82,1.8017578124999998E-5,67,75,47,9852,13635,13367,11865,7157,13665,15235,1511,Tag0,unknown
1500020099843,0,100,2.197265625E-5,67,75,47,9852,13635,13367,11865,7157,13665,15235,1511,Tag0,unknown
1500020099861,0,114,2.5048828125000003E-5,67,75,47,9852,13635,13367,11865,7157,13665,15235,1511,Tag0,unknown
1500020099862,0,107,2.35107421875E-5,67,75,47,9852,13635,13367,11865,7157,13665,15235,1511,Tag0,unknown
1500020099872,0,97,2.13134765625E-5,67,75,47,9852,13635,13367,11865,7157,13665,15235,1511,Tag0,unknown
1500020099873,0,89,1.95556640625E-5,67,75,47,9852,13635,13367,11865,7157,13665,15235,1511,Tag0,unknown
1500020099874,0,91,1.99951171875E-5,67,75,47,9852,13635,13367,11865,7157,13665,15235,1511,Tag0,unknown
1500020099874,0,92,2.021484375E-5,67,75,47,9852,13635,13367,11865,7157,13665,15235,1511,Tag0,unknown
1500020099875,0,89,1.95556640625E-5,67,75,47,9852,13635,13367,11865,7157,13665,15235,1511,Tag0,unknown
1500020099876,0,82,1.8017578124999998E-5,67,75,47,9852,13635,13367,11865,7157,13665,15235,1511,Tag0,unknown
1500020099876,0,71,1.56005859375E-5,67,75,47,9852,13635,13367,11865,7157,13665,15235,1511,Tag0,unknown
1500020099877,0,81,1.77978515625E-5,67,75,47,9852,13635,13367,11865,7157,13665,15235,1511,Tag0,unknown
1500020099878,0,82,1.8017578124999998E-5,67,75,47,9852,13635,13367,11865,7157,13665,15235,1511,Tag0,unknown
1500020099879,0,67,1.4721679687500002E-5,67,75,47,9852,13635,13367,11865,7157,13665,15235,1511,Tag0,unknown
1500020099879,0,56,1.23046875E-5,67,75,47,9852,13635,13367,11865,7157,13665,15235,1511,Tag0,unknown
1500020099880,0,57,1.2524414062500001E-5,67,75,47,9852,13635,13367,11865,7157,13665,15235,1511,Tag0,unknown
1500020099881,0,64,1.40625E-5,67,75,47,9852,13635,13367,11865,7157,13665,15235,1511,Tag0,unknown
1500020099882,0,53,1.1645507812500002E-5,67,75,47,9852,13635,13367,11865,7157,13665,15235,1511,Tag0,unknown
1500020099883,0,34,7.4707031250000005E-6,67,75,47,9852,13635,13367,11865,7157,13665,15235,1511,Tag0,unknown
1500020099883,0,35,7.6904296875E-6,67,75,47,9852,13635,13367,11865,7157,13665,15235,1511,Tag0,unknown
1500020099883,0,40,8.7890625E-6,67,75,47,9852,13635,13367,11865,7157,13665,15235,1511,Tag0,unknown
1500020099884,0,44,9.66796875E-6,67,75,47,9852,13635,13367,11865,7157,13665,15235,1511,Tag0,unknown
1500020099898,0,42,9.228515625000002E-6,67,75,47,9852,13635,13367,11865,7157,13665,15235,1511,Tag0,unknown
1500020099916,0,42,9.228515625000002E-6,67,75,47,9852,13635,13367,11865,7157,13665,15235,1511,Tag0,unknown
1500020099917,0,44,9.66796875E-6,67,75,47,9852,13635,13367,11865,7157,13665,15235,1511,Tag0,unknown
1500020099918,0,51,1.1206054687499999E-5,67,75,47,9852,13635,13367,11865,7157,13665,15235,1511,Tag0,unknown
1500020099918,0,57,1.2524414062500001E-5,67,75,47,9852,13635,13367,11865,7157,13665,15235,1511,Tag0,unknown
1500020099919,0,59,1.29638671875E-5,67,75,47,9852,13635,13367,11865,7157,13665,15235,1511,Tag0,unknown
1500020099919,0,51,1.1206054687499999E-5,67,75,47,9852,13635,13367,11865,7157,13665,15235,1511,Tag0,unknown
1500020099920,0,37,8.1298828125E-6,67,75,47,9852,13635,13367,11865,7157,13665,15235,1511,Tag0,unknown
1500020099920,0,48,1.0546875E-5,67,75,47,9852,13635,13367,11865,7157,13665,15235,1511,Tag0,unknown
1500020099921,0,60,1.318359375E-5,67,75,47,9852,13635,13367,11865,7157,13665,15235,1511,Tag0,unknown
1500020099922,0,67,1.4721679687500002E-5,67,75,47,9852,13635,13367,11865,7157,13665,15235,1511,Tag0,unknown
1500020099923,0,76,1.669921875E-5,67,75,47,9852,13635,13367,11865,7157,13665,15235,1511,Tag0,unknown
1500020099923,0,91,1.99951171875E-5,67,75,47,9852,13635,13367,11865,7157,13665,15235,1511,Tag0,unknown
1500020099924,0,101,2.2192382812500002E-5,67,75,47,9852,13635,13367,11865,7157,13665,15235,1511,Tag0,unknown
1500020099925,0,107,2.35107421875E-5,67,75,47,9852,13635,13367,11865,7157,13665,15235,1511,Tag0,unknown
1500020099925,0,112,2.4609375E-5,67,75,47,9852,13635,13367,11865,7157,13665,15235,1511,Tag0,unknown
1500020099925,0,96,2.109375E-5,67,75,47,9852,13635,13367,11865,7157,13665,15235,1511,Tag0,unknown
1500020099926,0,92,2.021484375E-5,67,75,47,9852,13635,13367,11865,7157,13665,15235,1511,Tag0,unknown
1500020099926,0,118,2.5927734375E-5,67,75,47,9852,13635,13367,11865,7157,13665,15235,1511,Tag0,unknown
1500020099926,0,-124,-2.724609375E-5,67,75,47,9852,13635,13367,11865,7157,13665,15235,1511,Tag0,unknown
1500020099939,0,-125,-2.74658203125E-5,67,75,47,9852,13635,13367,11865,7157,13665,15235,1511,Tag0,unknown
1500020099951,0,114,2.5048828125000003E-5,67,75,47,9852,13635,13367,11865,7157,13665,15235,1511,Tag0,unknown
1500020099952,0,91,1.99951171875E-5,67,75,47,9852,13635,13367,11865,7157,13665,15235,1511,Tag0,unknown
1500020099952,0,82,1.8017578124999998E-5,67,75,47,9852,13635,13367,11865,7157,13665,15235,1511,Tag0,unknown
1500020099953,0,85,1.86767578125E-5,67,75,47,9852,13635,13367,11865,7157,13665,15235,1511,Tag0,unknown
1500020099954,0,102,2.2412109374999998E-5,67,75,47,9852,13635,13367,11865,7157,13665,15235,1511,Tag0,unknown
1500020099954,0,113,2.48291015625E-5,67,75,47,9852,13635,13367,11865,7157,13665,15235,1511,Tag0,unknown
1500020099955,0,106,2.3291015625000003E-5,67,75,47,9852,13635,13367,11865,7157,13665,15235,1511,Tag0,unknown
1500020099956,0,98,2.1533203125E-5,67,75,47,9852,13635,13367,11865,7157,13665,15235,1511,Tag0,unknown
1500020099956,0,86,1.8896484375000003E-5,67,75,47,9852,13635,13367,11865,7157,13665,15235,1511,Tag0,unknown
1500020099957,0,76,1.669921875E-5,67,75,47,9852,13635,13367,11865,7157,13665,15235,1511,Tag0,unknown
1500020099958,0,61,1.34033203125E-5,67,75,47,9852,13635,13367,11865,7157,13665,15235,1511,Tag0,unknown
1500020099958,0,48,1.0546875E-5,67,75,47,9852,13635,13367,11865,7157,13665,15235,1511,Tag0,unknown
1500020099959,0,39,8.5693359375E-6,67,75,47,9852,13635,13367,11865,7157,13665,15235,1511,Tag0,unknown
1500020099959,0,52,1.142578125E-5,67,75,47,9852,13635,13367,11865,7157,13665,15235,1511,Tag0,unknown
1500020099959,0,54,1.1865234375000001E-5,67,75,47,9852,13635,13367,11865,7157,13665,15235,1511,Tag0,unknown
1500020099960,0,51,1.1206054687499999E-5,67,75,47,9852,13635,13367,11865,7157,13665,15235,1511,Tag0,unknown
1500020099960,0,53,1.1645507812500002E-5,67,75,47,9852,13635,13367,11865,7157,13665,15235,1511,Tag0,unknown
1500020099961,0,65,1.42822265625E-5,67,75,47,9852,13635,13367,11865,7157,13665,15235,1511,Tag0,unknown
1500020099962,0,58,1.2744140625E-5,67,75,47,9852,13635,13367,11865,7157,13665,15235,1511,Tag0,unknown
1500020099977,0,58,1.2744140625E-5,67,75,47,9852,13635,13367,11865,7157,13665,15235,1511,Tag0,unknown
1500020099985,0,74,1.6259765625E-5,67,75,47,9852,13635,13367,11865,7157,13665,15235,1511,Tag0,unknown
1500020099986,0,89,1.95556640625E-5,67,75,47,9852,13635,13367,11865,7157,13665,15235,1511,Tag0,unknown
1500020099986,0,85,1.86767578125E-5,67,75,47,9852,13635,13367,11865,7157,13665,15235,1511,Tag0,unknown
1500020099987,0,87,1.91162109375E-5,67,75,47,9852,13635,13367,11865,7157,13665,15235,1511,Tag0,unknown
1500020099988,0,87,1.91162109375E-5,67,75,47,9852,13635,13367,11865,7157,13665,15235,1511,Tag0,unknown
1500020099989,0,65,1.42822265625E-5,67,75,47,9852,13635,13367,11865,7157,13665,15235,1511,Tag0,unknown
1500020099989,0,58,1.2744140625E-5,67,75,47,9852,13635,13367,11865,7157,13665,15235,1511,Tag0,unknown
1500020099990,0,64,1.40625E-5,67,75,47,9852,13635,13367,11865,7157,13665,15235,1511,Tag0,unknown
1500020099991,0,51,1.1206054687499999E-5,67,75,47,9852,13635,13367,11865,7157,13665,15235,1511,Tag0,unknown
1500020099992,0,41,9.008789062499999E-6,67,75,47,9852,13635,13367,11865,7157,13665,15235,1511,Tag0,unknown
1500020099993,0,40,8.7890625E-6,67,75,47,9852,13635,13367,11865,7157,13665,15235,1511,Tag0,unknown
1500020099993,0,22,4.833984375E-6,67,75,47,9852,13635,13367,11865,7157,13665,15235,1511,Tag0,unknown
1500020099995,0,7,1.5380859375E-6,67,75,47,9852,13635,13367,11865,7157,13665,15235,1511,Tag0,unknown
1500020099995,0,12,2.63671875E-6,67,75,47,9852,13635,13367,11865,7157,13665,15235,1511,Tag0,unknown
1500020099995,0,25,5.4931640625E-6,67,75,47,9852,13635,13367,11865,7157,13665,15235,1511,Tag0,unknown
1500020099996,0,34,7.4707031250000005E-6,67,75,47,9852,13635,13367,11865,7157,13665,15235,1511,Tag0,unknown
1500020099996,0,38,8.349609375E-6,67,75,47,9852,13635,13367,11865,7157,13665,15235,1511,Tag0,unknown
1500020099997,0,44,9.66796875E-6,67,75,47,9852,13635,13367,11865,7157,13665,15235,1511,Tag0,unknown
1500020099998,0,52,1.142578125E-5,67,75,47,9852,13635,13367,11865,7157,13665,15235,1511,Tag0,unknown
1500020100017,0,66,1.4501953125E-5,67,75,47,9852,13635,13367,11865,7157,13665,15235,1511,Tag0,unknown
1500020100017,0,72,1.58203125E-5,67,75,47,9852,13635,13367,11865,7157,13665,15235,1511,Tag0,unknown
1500020100018,0,77,1.69189453125E-5,67,75,47,9852,13635,13367,11865,7157,13665,15235,1511,Tag0,unknown
1500020100018,0,90,1.9775390625E-5,67,75,47,9852,13635,13367,11865,7157,13665,15235,1511,Tag0,unknown
1500020100019,0,109,2.39501953125E-5,67,75,47,9852,13635,13367,11865,7157,13665,15235,1511,Tag0,unknown
1500020100019,0,118,2.5927734375E-5,67,75,47,9852,13635,13367,11865,7157,13665,15235,1511,Tag0,unknown
1500020100020,0,93,2.04345703125E-5,67,75,47,9852,13635,13367,11865,7157,13665,15235,1511,Tag0,unknown
1500020100020,0,56,1.23046875E-5,67,75,47,9852,13635,13367,11865,7157,13665,15235,1511,Tag0,unknown
1500020100022,0,33,7.2509765625E-6,67,75,47,9852,13635,13367,11865,7157,13665,15235,1511,Tag0,unknown
1500020100023,0,36,7.91015625E-6,67,75,47,9852,13635,13367,11865,7157,13665,15235,1511,Tag0,unknown
1500020100037,0,43,9.448242187500001E-6,67,75,47,9852,13635,13367,11865,7157,13665,15235,1511,Tag0,unknown
1500020100037,0,54,1.1865234375000001E-5,67,75,47,9852,13635,13367,11865,7157,13665,15235,1511,Tag0,unknown
1500020100038,0,65,1.42822265625E-5,67,75,47,9852,13635,13367,11865,7157,13665,15235,1511,Tag0,unknown
1500020100039,0,60,1.318359375E-5,67,75,47,9852,13635,13367,11865,7157,13665,15235,1511,Tag0,unknown
1500020100039,0,65,1.42822265625E-5,67,75,47,9852,13635,13367,11865,7157,13665,15235,1511,Tag0,unknown
1500020100040,0,73,1.6040039062500002E-5,67,75,47,9852,13635,13367,11865,7157,13665,15235,1511,Tag0,unknown
1500020100040,0,80,1.7578125E-5,67,75,47,9852,13635,13367,11865,7157,13665,15235,1511,Tag0,unknown
1500020100041,0,77,1.69189453125E-5,67,75,47,9852,13635,13367,11865,7157,13665,15235,1511,Tag0,unknown
1500020100042,0,71,1.56005859375E-5,67,75,47,9852,13635,13367,11865,7157,13665,15235,1511,Tag0,unknown
1500020100042,0,54,1.1865234375000001E-5,67,75,47,9852,13635,13367,11865,7157,13665,15235,1511,Tag0,unknown
1500020100050,0,36,7.91015625E-6,67,75,47,9852,13635,13367,11865,7157,13665,15235,1511,Tag0,unknown
1500020100050,0,43,9.448242187500001E-6,67,75,47,9852,13635,13367,11865,7157,13665,15235,1511,Tag0,unknown
1500020100050,0,56,1.23046875E-5,67,75,47,9852,13635,13367,11865,7157,13665,15235,1511,Tag0,unknown
1500020100050,0,51,1.1206054687499999E-5,67,75,47,9852,13635,13367,11865,7157,13665,15235,1511,Tag0,unknown
1500020100051,0,49,1.07666015625E-5,67,75,47,9852,13635,13367,11865,7157,13665,15235,1511,Tag0,unknown
1500020100051,0,45,9.8876953125E-6,67,75,47,9852,13635,13367,11865,7157,13665,15235,1511,Tag0,unknown
1500020100051,0,35,7.6904296875E-6,67,75,47,9852,13635,13367,11865,7157,13665,15235,1511,Tag0,unknown
1500020100052,0,24,5.2734375E-6,67,75,47,9852,13635,13367,11865,7157,13665,15235,1511,Tag0,unknown
1500020100052,0,24,5.2734375E-6,67,75,47,9852,13635,13367,11865,7157,13665,15235,1511,Tag0,unknown
1500020100052,0,36,7.91015625E-6,67,75,47,9852,13635,13367,11865,7157,13665,15235,1511,Tag0,unknown
1500020100082,0,66,1.4501953125E-5,67,75,47,9852,13635,13367,11865,7157,13665,15235,1511,Tag0,unknown
1500020100100,0,96,2.109375E-5,67,75,47,9852,13635,13367,11865,7157,13665,15235,1511,Tag0,unknown
1500020100101,0,97,2.13134765625E-5,67,75,47,9852,13635,13367,11865,7157,13665,15235,1511,Tag0,unknown
1500020100101,0,70,1.5380859375E-5,67,75,47,9852,13635,13367,11865,7157,13665,15235,1511,Tag0,unknown
1500020100102,0,55,1.20849609375E-5,67,75,47,9852,13635,13367,11865,7157,13665,15235,1511,Tag0,unknown
1500020100102,0,49,1.07666015625E-5,67,75,47,9852,13635,13367,11865,7157,13665,15235,1511,Tag0,unknown
1500020100103,0,29,6.3720703125E-6,67,75,47,9852,13635,13367,11865,7157,13665,15235,1511,Tag0,unknown
1500020100103,0,20,4.39453125E-6,67,75,47,9852,13635,13367,11865,7157,13665,15235,1511,Tag0,unknown
1500020100104,0,23,5.0537109375E-6,67,75,47,9852,13635,13367,11865,7157,13665,15235,1511,Tag0,unknown
1500020100104,0,32,7.03125E-6,67,75,47,9852,13635,13367,11865,7157,13665,15235,1511,Tag0,unknown
1500020100105,0,41,9.008789062499999E-6,67,75,47,9852,13635,13367,11865,7157,13665,15235,1511,Tag0,unknown
1500020100105,0,50,1.0986328125E-5,67,75,47,9852,13635,13367,11865,7157,13665,15235,1511,Tag0,unknown
1500020100106,0,48,1.0546875E-5,67,75,47,9852,13635,13367,11865,7157,13665,15235,1511,Tag0,unknown
1500020100106,0,29,6.3720703125E-6,67,75,47,9852,13635,13367,11865,7157,13665,15235,1511,Tag0,unknown
