timestampMs,poorSignal,eegRawValue,eegRawValueVolts,attention,meditation,blinkStrength,delta,theta,alphaLow,alphaHigh,betaLow,betaHigh,gammaLow,gammaMid,tagEvent,location
1500020288788,0,39,8.5693359375E-6,44,56,35,1752,2837,469,2009,1959,1146,344,184,Tag0,unknown
1500020288794,0,40,8.7890625E-6,44,56,35,1752,2837,469,2009,1959,1146,344,184,Tag0,unknown
1500020288794,0,40,8.7890625E-6,44,56,35,1752,2837,469,2009,1959,1146,344,184,Tag0,unknown
1500020288795,0,40,8.7890625E-6,44,56,35,1752,2837,469,2009,1959,1146,344,184,Tag0,unknown
1500020288795,0,53,1.1645507812500002E-5,44,56,35,1752,2837,469,2009,1959,1146,344,184,Tag0,unknown
1500020288796,0,70,1.5380859375E-5,44,56,35,1752,2837,469,2009,1959,1146,344,184,Tag0,unknown
1500020288796,0,68,1.4941406250000001E-5,44,56,35,1752,2837,469,2009,1959,1146,344,184,Tag0,unknown
1500020288797,0,60,1.318359375E-5,44,56,35,1752,2837,469,2009,1959,1146,344,184,Tag0,unknown
1500020288797,0,76,1.669921875E-5,44,56,35,1752,2837,469,2009,1959,1146,344,184,Tag0,unknown
1500020288798,0,82,1.8017578124999998E-5,44,56,35,1752,2837,469,2009,1959,1146,344,184,Tag0,unknown
1500020288798,0,73,1.6040039062500002E-5,44,56,35,1752,2837,469,2009,1959,1146,344,184,Tag0,unknown
1500020288798,0,64,1.40625E-5,44,56,35,1752,2837,469,2009,1959,1146,344,184,Tag0,unknown
1500020288799,0,42,9.228515625000002E-6,44,56,35,1752,2837,469,2009,1959,1146,344,184,Tag0,unknown
1500020288799,0,34,7.4707031250000005E-6,44,56,35,1752,2837,469,2009,1959,1146,344,184,Tag0,unknown
1500020288800,0,52,1.142578125E-5,44,56,35,1752,2837,469,2009,1959,1146,344,184,Tag0,unknown
1500020288800,0,82,1.8017578124999998E-5,44,56,35,1752,2837,469,2009,1959,1146,344,184,Tag0,unknown
1500020288801,0,88,1.93359375E-5,44,56,35,1752,2837,469,2009,1959,1146,344,184,Tag0,unknown
1500020288802,0,80,1.7578125E-5,44,56,35,1752,2837,469,2009,1959,1146,344,184,Tag0,unknown
1500020288814,0,81,1.77978515625E-5,44,56,35,1752,2837,469,2009,1959,1146,344,184,Tag0,unknown
1500020288814,0,85,1.86767578125E-5,44,56,35,1752,2837,469,2009,1959,1146,344,184,Tag0,unknown
1500020288854,0,60,1.318359375E-5,44,56,35,1752,2837,469,2009,1959,1146,344,184,Tag0,unknown
1500020288860,0,22,4.833984375E-6,44,56,35,1752,2837,469,2009,1959,1146,344,184,Tag0,unknown
1500020288861,0,8,1.7578125E-6,44,56,35,1752,2837,469,2009,1959,1146,344,184,Tag0,unknown
1500020288862,0,21,4.614257812500001E-6,44,56,35,1752,2837,469,2009,1959,1146,344,184,Tag0,unknown
1500020288862,0,53,1.1645507812500002E-5,44,56,35,1752,2837,469,2009,1959,1146,344,184,Tag0,unknown
1500020288862,0,71,1.56005859375E-5,44,56,35,1752,2837,469,2009,1959,1146,344,184,Tag0,unknown
1500020288863,0,67,1.4721679687500002E-5,44,56,35,1752,2837,469,2009,1959,1146,344,184,Tag0,unknown
1500020288863,0,44,9.66796875E-6,44,56,35,1752,2837,469,2009,1959,1146,344,184,Tag0,unknown
1500020288864,0,24,5.2734375E-6,44,56,35,1752,2837,469,2009,1959,1146,344,184,Tag0,unknown
1500020288865,0,21,4.614257812500001E-6,44,56,35,1752,2837,469,2009,1959,1146,344,184,Tag0,unknown
1500020288918,0,27,5.9326171875000005E-6,44,56,35,1752,2837,469,2009,1959,1146,344,184,Tag0,unknown
1500020288928,0,34,7.4707031250000005E-6,44,56,35,1752,2837,469,2009,1959,1146,344,184,Tag0,unknown
1500020288929,0,22,4.833984375E-6,44,56,35,1752,2837,469,2009,1959,1146,344,184,Tag0,unknown
1500020288929,0,3,6.591796875E-7,44,56,35,1752,2837,469,2009,1959,1146,344,184,Tag0,unknown
1500020288930,0,0,0.0,44,56,35,1752,2837,469,2009,1959,1146,344,184,Tag0,unknown
1500020288930,0,34,7.4707031250000005E-6,44,56,35,1752,2837,469,2009,1959,1146,344,184,Tag0,unknown
1500020288931,0,67,1.4721679687500002E-5,44,56,35,1752,2837,469,2009,1959,1146,344,184,Tag0,unknown
1500020288932,0,64,1.40625E-5,44,56,35,1752,2837,469,2009,1959,1146,344,184,Tag0,unknown
1500020288932,0,37,8.1298828125E-6,44,56,35,1752,2837,469,2009,1959,1146,344,184,Tag0,unknown
1500020288933,0,23,5.0537109375E-6,44,56,35,1752,2837,469,2009,1959,1146,344,184,Tag0,unknown
1500020288933,0,32,7.03125E-6,44,56,35,1752,2837,469,2009,1959,1146,344,184,Tag0,unknown
1500020288934,0,44,9.66796875E-6,44,56,35,1752,2837,469,2009,1959,1146,344,184,Tag0,unknown
1500020288934,0,48,1.0546875E-5,44,56,35,1752,2837,469,2009,1959,1146,344,184,Tag0,unknown
1500020288935,0,33,7.2509765625E-6,44,56,35,1752,2837,469,2009,1959,1146,344,184,Tag0,unknown
1500020288935,0,9,1.9775390625E-6,44,56,35,1752,2837,469,2009,1959,1146,344,184,Tag0,unknown
1500020288936,0,4,8.7890625E-7,44,56,35,1752,2837,469,2009,1959,1146,344,184,Tag0,unknown
1500020288936,0,22,4.833984375E-6,44,56,35,1752,2837,469,2009,1959,1146,344,184,Tag0,unknown
1500020288936,0,40,8.7890625E-6,44,56,35,1752,2837,469,2009,1959,1146,344,184,Tag0,unknown
1500020288936,0,35,7.6904296875E-6,44,56,35,1752,2837,469,2009,1959,1146,344,184,Tag0,unknown
1500020288936,0,25,5.4931640625E-6,44,56,35,1752,2837,469,2009,1959,1146,344,184,Tag0,unknown
1500020288937,0,24,5.2734375E-6,44,56,35,1752,2837,469,2009,1959,1146,344,184,Tag0,unknown
1500020288937,0,27,5.9326171875000005E-6,44,56,35,1752,2837,469,2009,1959,1146,344,184,Tag0,unknown
1500020288938,0,28,6.15234375E-6,44,56,35,1752,2837,469,2009,1959,1146,344,184,Tag0,unknown
1500020288938,0,22,4.833984375E-6,44,56,35,1752,2837,469,2009,1959,1146,344,184,Tag0,unknown
1500020288939,0,20,4.39453125E-6,44,56,35,1752,2837,469,2009,1959,1146,344,184,Tag0,unknown
1500020288939,0,33,7.2509765625E-6,44,56,35,1752,2837,469,2009,1959,1146,344,184,Tag0,unknown
1500020288939,0,57,1.2524414062500001E-5,44,56,35,1752,2837,469,2009,1959,1146,344,184,Tag0,unknown
1500020288939,0,68,1.4941406250000001E-5,44,56,35,1752,2837,469,2009,1959,1146,344,184,Tag0,unknown
1500020288940,0,52,1.142578125E-5,44,56,35,1752,2837,469,2009,1959,1146,344,184,Tag0,unknown
1500020288940,0,23,5.0537109375E-6,44,56,35,1752,2837,469,2009,1959,1146,344,184,Tag0,unknown
1500020288940,0,22,4.833984375E-6,44,56,35,1752,2837,469,2009,1959,1146,344,184,Tag0,unknown
1500020288941,0,40,8.7890625E-6,44,56,35,1752,2837,469,2009,1959,1146,344,184,Tag0,unknown
1500020288941,0,53,1.1645507812500002E-5,44,56,35,1752,2837,469,2009,1959,1146,344,184,Tag0,unknown
1500020288942,0,44,9.66796875E-6,44,56,35,1752,2837,469,2009,1959,1146,344,184,Tag0,unknown
1500020288942,0,38,8.349609375E-6,44,56,35,1752,2837,469,2009,1959,1146,344,184,Tag0,unknown
1500020288943,0,53,1.1645507812500002E-5,44,56,35,1752,2837,469,2009,1959,1146,344,184,Tag0,unknown
1500020288943,0,65,1.42822265625E-5,44,56,35,1752,2837,469,2009,1959,1146,344,184,Tag0,unknown
1500020288944,0,59,1.29638671875E-5,44,56,35,1752,2837,469,2009,1959,1146,344,184,Tag0,unknown
1500020288944,0,43,9.448242187500001E-6,44,56,35,1752,2837,469,2009,1959,1146,344,184,Tag0,unknown
1500020288945,0,33,7.2509765625E-6,44,56,35,1752,2837,469,2009,1959,1146,344,184,Tag0,unknown
1500020288945,0,43,9.448242187500001E-6,44,56,35,1752,2837,469,2009,1959,1146,344,184,Tag0,unknown
1500020288945,0,66,1.4501953125E-5,44,56,35,1752,2837,469,2009,1959,1146,344,184,Tag0,unknown
1500020288946,0,82,1.8017578124999998E-5,44,56,35,1752,2837,469,2009,1959,1146,344,184,Tag0,unknown
1500020288948,0,68,1.4941406250000001E-5,44,56,35,1752,2837,469,2009,1959,1146,344,184,Tag0,unknown
1500020288949,0,36,7.91015625E-6,44,56,35,1752,2837,469,2009,1959,1146,344,184,Tag0,unknown
1500020288949,0,25,5.4931640625E-6,44,56,35,1752,2837,469,2009,1959,1146,344,184,Tag0,unknown
1500020288950,0,36,7.91015625E-6,44,56,35,1752,2837,469,2009,1959,1146,344,184,Tag0,unknown
1500020288951,0,58,1.2744140625E-5,44,56,35,1752,2837,469,2009,1959,1146,344,184,Tag0,unknown
1500020288951,0,82,1.8017578124999998E-5,44,56,35,1752,2837,469,2009,1959,1146,344,184,Tag0,unknown
1500020288952,0,80,1.7578125E-5,44,56,35,1752,2837,469,2009,1959,1146,344,184,Tag0,unknown
1500020288952,0,61,1.34033203125E-5,44,56,35,1752,2837,469,2009,1959,1146,344,184,Tag0,unknown
1500020288952,0,66,1.4501953125E-5,44,56,35,1752,2837,469,2009,1959,1146,344,184,Tag0,unknown
1500020288953,0,83,1.82373046875E-5,44,56,35,1752,2837,469,2009,1959,1146,344,184,Tag0,unknown
1500020288954,0,74,1.6259765625E-5,44,56,35,1752,2837,469,2009,1959,1146,344,184,Tag0,unknown
1500020288954,0,52,1.142578125E-5,44,56,35,1752,2837,469,2009,1959,1146,344,184,Tag0,unknown
1500020288955,0,39,8.5693359375E-6,44,56,35,1752,2837,469,2009,1959,1146,344,184,Tag0,unknown
1500020288955,0,48,1.0546875E-5,44,56,35,1752,2837,469,2009,1959,1146,344,184,Tag0,unknown
1500020288956,0,66,1.4501953125E-5,44,56,35,1752,2837,469,2009,1959,1146,344,184,Tag0,unknown
1500020288956,0,68,1.4941406250000001E-5,44,56,35,1752,2837,469,2009,1959,1146,344,184,Tag0,unknown
1500020288956,0,59,1.29638671875E-5,44,56,35,1752,2837,469,2009,1959,1146,344,184,Tag0,unknown
1500020288983,0,54,1.1865234375000001E-5,44,56,35,1752,2837,469,2009,1959,1146,344,184,Tag0,unknown
1500020288983,0,55,1.20849609375E-5,44,56,35,1752,2837,469,2009,1959,1146,344,184,Tag0,unknown
1500020288983,0,65,1.42822265625E-5,44,56,35,1752,2837,469,2009,1959,1146,344,184,Tag0,unknown
1500020288995,0,52,1.142578125E-5,44,56,35,1752,2837,469,2009,1959,1146,344,184,Tag0,unknown
1500020288995,0,24,5.2734375E-6,44,56,35,1752,2837,469,2009,1959,1146,344,184,Tag0,unknown
1500020288995,0,21,4.614257812500001E-6,44,56,35,1752,2837,469,2009,1959,1146,344,184,Tag0,unknown
1500020288996,0,37,8.1298828125E-6,44,56,35,1752,2837,469,2009,1959,1146,344,184,Tag0,unknown
1500020288996,0,59,1.29638671875E-5,44,56,35,1752,2837,469,2009,1959,1146,344,184,Tag0,unknown
1500020288996,0,81,1.77978515625E-5,44,56,35,1752,2837,469,2009,1959,1146,344,184,Tag0,unknown
1500020288996,0,71,1.56005859375E-5,44,56,35,1752,2837,469,2009,1959,1146,344,184,Tag0,unknown
1500020288997,0,38,8.349609375E-6,44,56,35,1752,2837,469,2009,1959,1146,344,184,Tag0,unknown
1500020288997,0,29,6.3720703125E-6,44,56,35,1752,2837,469,2009,1959,1146,344,184,Tag0,unknown
1500020288997,0,70,1.5380859375E-5,44,56,35,1752,2837,469,2009,1959,1146,344,184,Tag0,unknown
1500020288997,0,109,2.39501953125E-5,44,56,35,1752,2837,469,2009,1959,1146,344,184,Tag0,unknown
1500020288998,0,100,2.197265625E-5,44,56,35,1752,2837,469,2009,1959,1146,344,184,Tag0,unknown
1500020288998,0,69,1.51611328125E-5,44,56,35,1752,2837,469,2009,1959,1146,344,184,Tag0,unknown
1500020288998,0,67,1.4721679687500002E-5,44,56,35,1752,2837,469,2009,1959,1146,344,184,Tag0,unknown
1500020288998,0,82,1.8017578124999998E-5,44,56,35,1752,2837,469,2009,1959,1146,344,184,Tag0,unknown
1500020288998,0,89,1.95556640625E-5,44,56,35,1752,2837,469,2009,1959,1146,344,184,Tag0,unknown
1500020288999,0,57,1.2524414062500001E-5,44,56,35,1752,2837,469,2009,1959,1146,344,184,Tag0,unknown
1500020288999,0,22,4.833984375E-6,44,56,35,1752,2837,469,2009,1959,1146,344,184,Tag0,unknown
1500020288999,0,20,4.39453125E-6,44,56,35,1752,2837,469,2009,1959,1146,344,184,Tag0,unknown
1500020288999,0,49,1.07666015625E-5,44,56,35,1752,2837,469,2009,1959,1146,344,184,Tag0,unknown
1500020289000,0,68,1.4941406250000001E-5,44,56,35,1752,2837,469,2009,1959,1146,344,184,Tag0,unknown
1500020289000,0,60,1.318359375E-5,44,56,35,1752,2837,469,2009,1959,1146,344,184,Tag0,unknown
1500020289000,0,40,8.7890625E-6,44,56,35,1752,2837,469,2009,1959,1146,344,184,Tag0,unknown
1500020289000,0,27,5.9326171875000005E-6,44,56,35,1752,2837,469,2009,1959,1146,344,184,Tag0,unknown
1500020289001,0,35,7.6904296875E-6,44,56,35,1752,2837,469,2009,1959,1146,344,184,Tag0,unknown
1500020289001,0,53,1.1645507812500002E-5,44,56,35,1752,2837,469,2009,1959,1146,344,184,Tag0,unknown
1500020289001,0,52,1.142578125E-5,44,56,35,1752,2837,469,2009,1959,1146,344,184,Tag0,unknown
1500020289001,0,28,6.15234375E-6,44,56,35,1752,2837,469,2009,1959,1146,344,184,Tag0,unknown
1500020289002,0,27,5.9326171875000005E-6,44,56,35,1752,2837,469,2009,1959,1146,344,184,Tag0,unknown
1500020289002,0,54,1.1865234375000001E-5,44,56,35,1752,2837,469,2009,1959,1146,344,184,Tag0,unknown
1500020289002,0,88,1.93359375E-5,44,56,35,1752,2837,469,2009,1959,1146,344,184,Tag0,unknown
1500020289002,0,107,2.35107421875E-5,44,56,35,1752,2837,469,2009,1959,1146,344,184,Tag0,unknown
1500020289003,0,90,1.9775390625E-5,44,56,35,1752,2837,469,2009,1959,1146,344,184,Tag0,unknown
1500020289003,0,69,1.51611328125E-5,44,56,35,1752,2837,469,2009,1959,1146,344,184,Tag0,unknown
1500020289003,0,71,1.56005859375E-5,44,56,35,1752,2837,469,2009,1959,1146,344,184,Tag0,unknown
1500020289003,0,81,1.77978515625E-5,44,56,35,1752,2837,469,2009,1959,1146,344,184,Tag0,unknown
1500020289003,0,61,1.34033203125E-5,44,56,35,1752,2837,469,2009,1959,1146,344,184,Tag0,unknown
1500020289004,0,27,5.9326171875000005E-6,44,56,35,1752,2837,469,2009,1959,1146,344,184,Tag0,unknown
1500020289004,0,22,4.833984375E-6,44,56,35,1752,2837,469,2009,1959,1146,344,184,Tag0,unknown
1500020289004,0,35,7.6904296875E-6,44,56,35,1752,2837,469,2009,1959,1146,344,184,Tag0,unknown
1500020289004,0,60,1.318359375E-5,44,56,35,1752,2837,469,2009,1959,1146,344,184,Tag0,unknown
1500020289005,0,80,1.7578125E-5,44,56,35,1752,2837,469,2009,1959,1146,344,184,Tag0,unknown
1500020289005,0,69,1.51611328125E-5,44,56,35,1752,2837,469,2009,1959,1146,344,184,Tag0,unknown
1500020289005,0,56,1.23046875E-5,44,56,35,1752,2837,469,2009,1959,1146,344,184,Tag0,unknown
1500020289005,0,67,1.4721679687500002E-5,44,56,35,1752,2837,469,2009,1959,1146,344,184,Tag0,unknown
1500020289006,0,77,1.69189453125E-5,44,56,35,1752,2837,469,2009,1959,1146,344,184,Tag0,unknown
1500020289006,0,68,1.4941406250000001E-5,44,56,35,1752,2837,469,2009,1959,1146,344,184,Tag0,unknown
1500020289006,0,40,8.7890625E-6,44,56,35,1752,2837,469,2009,1959,1146,344,184,Tag0,unknown
1500020289006,0,16,3.515625E-6,44,56,35,1752,2837,469,2009,1959,1146,344,184,Tag0,unknown
1500020289012,0,13,2.8564453125E-6,44,56,35,1752,2837,469,2009,1959,1146,344,184,Tag0,unknown
1500020289012,0,39,8.5693359375E-6,44,56,35,1752,2837,469,2009,1959,1146,344,184,Tag0,unknown
1500020289013,0,59,1.29638671875E-5,44,56,35,1752,2837,469,2009,1959,1146,344,184,Tag0,unknown
1500020289013,0,58,1.2744140625E-5,44,56,35,1752,2837,469,2009,1959,1146,344,184,Tag0,unknown
1500020289013,0,44,9.66796875E-6,44,56,35,1752,2837,469,2009,1959,1146,344,184,Tag0,unknown
1500020289013,0,36,7.91015625E-6,44,56,35,1752,2837,469,2009,1959,1146,344,184,Tag0,unknown
1500020289013,0,67,1.4721679687500002E-5,44,56,35,1752,2837,469,2009,1959,1146,344,184,Tag0,unknown
1500020289014,0,105,2.30712890625E-5,44,56,35,1752,2837,469,2009,1959,1146,344,184,Tag0,unknown
1500020289049,0,92,2.021484375E-5,44,56,35,1752,2837,469,2009,1959,1146,344,184,Tag0,unknown
1500020289063,0,53,1.1645507812500002E-5,44,56,35,1752,2837,469,2009,1959,1146,344,184,Tag0,unknown
1500020289064,0,49,1.07666015625E-5,44,56,35,1752,2837,469,2009,1959,1146,344,184,Tag0,unknown
1500020289064,0,81,1.77978515625E-5,44,56,35,1752,2837,469,2009,1959,1146,344,184,Tag0,unknown
1500020289065,0,104,2.28515625E-5,44,56,35,1752,2837,469,2009,1959,1146,344,184,Tag0,unknown
1500020289066,0,101,2.2192382812500002E-5,44,56,35,1752,2837,469,2009,1959,1146,344,184,Tag0,unknown
1500020289066,0,66,1.4501953125E-5,44,56,35,1752,2837,469,2009,1959,1146,344,184,Tag0,unknown
1500020289067,0,33,7.2509765625E-6,44,56,35,1752,2837,469,2009,1959,1146,344,184,Tag0,unknown
1500020289067,0,34,7.4707031250000005E-6,44,56,35,1752,2837,469,2009,1959,1146,344,184,Tag0,unknown
1500020289068,0,50,1.0986328125E-5,44,56,35,1752,2837,469,2009,1959,1146,344,184,Tag0,unknown
1500020289068,0,53,1.1645507812500002E-5,44,56,35,1752,2837,469,2009,1959,1146,344,184,Tag0,unknown
1500020289069,0,58,1.2744140625E-5,44,56,35,1752,2837,469,2009,1959,1146,344,184,Tag0,unknown
1500020289069,0,67,1.4721679687500002E-5,44,56,35,1752,2837,469,2009,1959,1146,344,184,Tag0,unknown
1500020289069,0,69,1.51611328125E-5,44,56,35,1752,2837,469,2009,1959,1146,344,184,Tag0,unknown
1500020289069,0,67,1.4721679687500002E-5,44,56,35,1752,2837,469,2009,1959,1146,344,184,Tag0,unknown
1500020289070,0,43,9.448242187500001E-6,44,56,35,1752,2837,469,2009,1959,1146,344,184,Tag0,unknown
1500020289070,0,23,5.0537109375E-6,44,56,35,1752,2837,469,2009,1959,1146,344,184,Tag0,unknown
1500020289070,0,25,5.4931640625E-6,44,56,35,1752,2837,469,2009,1959,1146,344,184,Tag0,unknown
1500020289070,0,44,9.66796875E-6,44,56,35,1752,2837,469,2009,1959,1146,344,184,Tag0,unknown
1500020289071,0,68,1.4941406250000001E-5,44,56,35,1752,2837,469,2009,1959,1146,344,184,Tag0,unknown
1500020289071,0,72,1.58203125E-5,44,56,35,1752,2837,469,2009,1959,1146,344,184,Tag0,unknown
1500020289072,0,59,1.29638671875E-5,44,56,35,1752,2837,469,2009,1959,1146,344,184,Tag0,unknown
1500020289073,0,61,1.34033203125E-5,44,56,35,1752,2837,469,2009,1959,1146,344,184,Tag0,unknown
1500020289073,0,83,1.82373046875E-5,44,56,35,1752,2837,469,2009,1959,1146,344,184,Tag0,unknown
1500020289073,0,114,2.5048828125000003E-5,44,56,35,1752,2837,469,2009,1959,1146,344,184,Tag0,unknown
1500020289073,0,124,2.724609375E-5,44,56,35,1752,2837,469,2009,1959,1146,344,184,Tag0,unknown
1500020289074,0,102,2.2412109374999998E-5,44,56,35,1752,2837,469,2009,1959,1146,344,184,Tag0,unknown
1500020289074,0,80,1.7578125E-5,44,56,35,1752,2837,469,2009,1959,1146,344,184,Tag0,unknown
1500020289074,0,76,1.669921875E-5,44,56,35,1752,2837,469,2009,1959,1146,344,184,Tag0,unknown
1500020289074,0,89,1.95556640625E-5,44,56,35,1752,2837,469,2009,1959,1146,344,184,Tag0,unknown
1500020289074,0,89,1.95556640625E-5,44,56,35,1752,2837,469,2009,1959,1146,344,184,Tag0,unknown
1500020289075,0,71,1.56005859375E-5,44,56,35,1752,2837,469,2009,1959,1146,344,184,Tag0,unknown
1500020289075,0,52,1.142578125E-5,44,56,35,1752,2837,469,2009,1959,1146,344,184,Tag0,unknown
1500020289075,0,51,1.1206054687499999E-5,44,56,35,1752,2837,469,2009,1959,1146,344,184,Tag0,unknown
1500020289076,0,72,1.58203125E-5,44,56,35,1752,2837,469,2009,1959,1146,344,184,Tag0,unknown
1500020289076,0,96,2.109375E-5,44,56,35,1752,2837,469,2009,1959,1146,344,184,Tag0,unknown
1500020289076,0,100,2.197265625E-5,44,56,35,1752,2837,469,2009,1959,1146,344,184,Tag0,unknown
1500020289076,0,91,1.99951171875E-5,44,56,35,1752,2837,469,2009,1959,1146,344,184,Tag0,unknown
1500020289077,0,88,1.93359375E-5,44,56,35,1752,2837,469,2009,1959,1146,344,184,Tag0,unknown
1500020289077,0,97,2.13134765625E-5,44,56,35,1752,2837,469,2009,1959,1146,344,184,Tag0,unknown
1500020289078,0,102,2.2412109374999998E-5,44,56,35,1752,2837,469,2009,1959,1146,344,184,Tag0,unknown
1500020289078,0,98,2.1533203125E-5,44,56,35,1752,2837,469,2009,1959,1146,344,184,Tag0,unknown
1500020289079,0,99,2.1752929687500003E-5,44,56,35,1752,2837,469,2009,1959,1146,344,184,Tag0,unknown
1500020289079,0,115,2.52685546875E-5,44,56,35,1752,2837,469,2009,1959,1146,344,184,Tag0,unknown
1500020289079,0,121,2.6586914062500003E-5,44,56,35,1752,2837,469,2009,1959,1146,344,184,Tag0,unknown
1500020289079,0,105,2.30712890625E-5,44,56,35,1752,2837,469,2009,1959,1146,344,184,Tag0,unknown
1500020289080,0,83,1.82373046875E-5,44,56,35,1752,2837,469,2009,1959,1146,344,184,Tag0,unknown
1500020289080,0,64,1.40625E-5,44,56,35,1752,2837,469,2009,1959,1146,344,184,Tag0,unknown
1500020289080,0,58,1.2744140625E-5,44,56,35,1752,2837,469,2009,1959,1146,344,184,Tag0,unknown
1500020289081,0,74,1.6259765625E-5,44,56,35,1752,2837,469,2009,1959,1146,344,184,Tag0,unknown
1500020289081,0,81,1.77978515625E-5,44,56,35,1752,2837,469,2009,1959,1146,344,184,Tag0,unknown
1500020289082,0,58,1.2744140625E-5,44,56,35,1752,2837,469,2009,1959,1146,344,184,Tag0,unknown
1500020289082,0,36,7.91015625E-6,44,56,35,1752,2837,469,2009,1959,1146,344,184,Tag0,unknown
1500020289082,0,33,7.2509765625E-6,44,56,35,1752,2837,469,2009,1959,1146,344,184,Tag0,unknown
1500020289082,0,42,9.228515625000002E-6,44,56,35,1752,2837,469,2009,1959,1146,344,184,Tag0,unknown
1500020289083,0,56,1.23046875E-5,44,56,35,1752,2837,469,2009,1959,1146,344,184,Tag0,unknown
1500020289083,0,64,1.40625E-5,44,56,35,1752,2837,469,2009,1959,1146,344,184,Tag0,unknown
1500020289083,0,60,1.318359375E-5,44,56,35,1752,2837,469,2009,1959,1146,344,184,Tag0,unknown
1500020289083,0,68,1.4941406250000001E-5,44,56,35,1752,2837,469,2009,1959,1146,344,184,Tag0,unknown
1500020289083,0,69,1.51611328125E-5,44,56,35,1752,2837,469,2009,1959,1146,344,184,Tag0,unknown
1500020289099,0,54,1.1865234375000001E-5,44,56,35,1752,2837,469,2009,1959,1146,344,184,Tag0,unknown
1500020289114,0,32,7.03125E-6,44,56,35,1752,2837,469,2009,1959,1146,344,184,Tag0,unknown
1500020289114,0,17,3.7353515625000003E-6,44,56,35,1752,2837,469,2009,1959,1146,344,184,Tag0,unknown
1500020289115,0,8,1.7578125E-6,44,56,35,1752,2837,469,2009,1959,1146,344,184,Tag0,unknown
1500020289116,0,7,1.5380859375E-6,44,56,35,1752,2837,469,2009,1959,1146,344,184,Tag0,unknown
1500020289116,0,5,1.0986328125E-6,44,56,35,1752,2837,469,2009,1959,1146,344,184,Tag0,unknown
1500020289116,0,9,1.9775390625E-6,44,56,35,1752,2837,469,2009,1959,1146,344,184,Tag0,unknown
1500020289117,0,22,4.833984375E-6,44,56,35,1752,2837,469,2009,1959,1146,344,184,Tag0,unknown
1500020289117,0,36,7.91015625E-6,44,56,35,1752,2837,469,2009,1959,1146,344,184,Tag0,unknown
1500020289118,0,55,1.20849609375E-5,44,56,35,1752,2837,469,2009,1959,1146,344,184,Tag0,unknown
1500020289118,0,71,1.56005859375E-5,44,56,35,1752,2837,469,2009,1959,1146,344,184,Tag0,unknown
1500020289119,0,74,1.6259765625E-5,44,56,35,1752,2837,469,2009,1959,1146,344,184,Tag0,unknown
1500020289119,0,81,1.77978515625E-5,44,56,35,1752,2837,469,2009,1959,1146,344,184,Tag0,unknown
1500020289119,0,77,1.69189453125E-5,44,56,35,1752,2837,469,2009,1959,1146,344,184,Tag0,unknown
1500020289120,0,75,1.64794921875E-5,44,56,35,1752,2837,469,2009,1959,1146,344,184,Tag0,unknown
1500020289120,0,85,1.86767578125E-5,44,56,35,1752,2837,469,2009,1959,1146,344,184,Tag0,unknown
1500020289121,0,100,2.197265625E-5,44,56,35,1752,2837,469,2009,1959,1146,344,184,Tag0,unknown
1500020289121,0,98,2.1533203125E-5,44,56,35,1752,2837,469,2009,1959,1146,344,184,Tag0,unknown
1500020289122,0,75,1.64794921875E-5,44,56,35,1752,2837,469,2009,1959,1146,344,184,Tag0,unknown
1500020289122,0,71,1.56005859375E-5,44,56,35,1752,2837,469,2009,1959,1146,344,184,Tag0,unknown
1500020289122,0,74,1.6259765625E-5,44,56,35,1752,2837,469,2009,1959,1146,344,184,Tag0,unknown
1500020289122,0,71,1.56005859375E-5,44,56,35,1752,2837,469,2009,1959,1146,344,184,Tag0,unknown
1500020289123,0,60,1.318359375E-5,44,56,35,1752,2837,469,2009,1959,1146,344,184,Tag0,unknown
1500020289123,0,40,8.7890625E-6,44,56,35,1752,2837,469,2009,1959,1146,344,184,Tag0,unknown
1500020289123,0,34,7.4707031250000005E-6,44,56,35,1752,2837,469,2009,1959,1146,344,184,Tag0,unknown
1500020289123,0,64,1.40625E-5,44,56,35,1752,2837,469,2009,1959,1146,344,184,Tag0,unknown
1500020289123,0,100,2.197265625E-5,44,56,35,1752,2837,469,2009,1959,1146,344,184,Tag0,unknown
1500020289124,0,108,2.3730468750000002E-5,44,56,35,1752,2837,469,2009,1959,1146,344,184,Tag0,unknown
1500020289124,0,83,1.82373046875E-5,44,56,35,1752,2837,469,2009,1959,1146,344,184,Tag0,unknown
1500020289124,0,54,1.1865234375000001E-5,44,56,35,1752,2837,469,2009,1959,1146,344,184,Tag0,unknown
1500020289124,0,52,1.142578125E-5,44,56,35,1752,2837,469,2009,1959,1146,344,184,Tag0,unknown
1500020289124,0,65,1.42822265625E-5,44,56,35,1752,2837,469,2009,1959,1146,344,184,Tag0,unknown
1500020289125,0,68,1.4941406250000001E-5,44,56,35,1752,2837,469,2009,1959,1146,344,184,Tag0,unknown
1500020289125,0,65,1.42822265625E-5,44,56,35,1752,2837,469,2009,1959,1146,344,184,Tag0,unknown
1500020289125,0,64,1.40625E-5,44,56,35,1752,2837,469,2009,1959,1146,344,184,Tag0,unknown
1500020289126,0,65,1.42822265625E-5,44,56,35,1752,2837,469,2009,1959,1146,344,184,Tag0,unknown
1500020289126,0,72,1.58203125E-5,44,56,35,1752,2837,469,2009,1959,1146,344,184,Tag0,unknown
1500020289126,0,66,1.4501953125E-5,44,56,35,1752,2837,469,2009,1959,1146,344,184,Tag0,unknown
1500020289126,0,43,9.448242187500001E-6,44,56,35,1752,2837,469,2009,1959,1146,344,184,Tag0,unknown
1500020289126,0,32,7.03125E-6,44,56,35,1752,2837,469,2009,1959,1146,344,184,Tag0,unknown
1500020289127,0,44,9.66796875E-6,44,56,35,1752,2837,469,2009,1959,1146,344,184,Tag0,unknown
1500020289127,0,73,1.6040039062500002E-5,44,56,35,1752,2837,469,2009,1959,1146,344,184,Tag0,unknown
1500020289127,0,89,1.95556640625E-5,44,56,35,1752,2837,469,2009,1959,1146,344,184,Tag0,unknown
1500020289128,0,71,1.56005859375E-5,44,56,35,1752,2837,469,2009,1959,1146,344,184,Tag0,unknown
1500020289129,0,43,9.448242187500001E-6,44,56,35,1752,2837,469,2009,1959,1146,344,184,Tag0,unknown
1500020289129,0,51,1.1206054687499999E-5,44,56,35,1752,2837,469,2009,1959,1146,344,184,Tag0,unknown
1500020289129,0,80,1.7578125E-5,44,56,35,1752,2837,469,2009,1959,1146,344,184,Tag0,unknown
1500020289130,0,90,1.9775390625E-5,44,56,35,1752,2837,469,2009,1959,1146,344,184,Tag0,unknown
1500020289130,0,81,1.77978515625E-5,44,56,35,1752,2837,469,2009,1959,1146,344,184,Tag0,unknown
1500020289131,0,65,1.42822265625E-5,44,56,35,1752,2837,469,2009,1959,1146,344,184,Tag0,unknown
1500020289131,0,50,1.0986328125E-5,44,56,35,1752,2837,469,2009,1959,1146,344,184,Tag0,unknown
1500020289132,0,50,1.0986328125E-5,44,56,35,1752,2837,469,2009,1959,1146,344,184,Tag0,unknown
1500020289132,0,68,1.4941406250000001E-5,44,56,35,1752,2837,469,2009,1959,1146,344,184,Tag0,unknown
1500020289132,0,82,1.8017578124999998E-5,44,56,35,1752,2837,469,2009,1959,1146,344,184,Tag0,unknown
1500020289132,0,70,1.5380859375E-5,44,56,35,1752,2837,469,2009,1959,1146,344,184,Tag0,unknown
1500020289133,0,44,9.66796875E-6,44,56,35,1752,2837,469,2009,1959,1146,344,184,Tag0,unknown
1500020289133,0,42,9.228515625000002E-6,44,56,35,1752,2837,469,2009,1959,1146,344,184,Tag0,unknown
1500020289133,0,54,1.1865234375000001E-5,44,56,35,1752,2837,469,2009,1959,1146,344,184,Tag0,unknown
1500020289133,0,42,9.228515625000002E-6,44,56,35,1752,2837,469,2009,1959,1146,344,184,Tag0,unknown
1500020289134,0,18,3.955078125E-6,44,56,35,1752,2837,469,2009,1959,1146,344,184,Tag0,unknown
1500020289136,0,9,1.9775390625E-6,44,56,35,1752,2837,469,2009,1959,1146,344,184,Tag0,unknown
1500020289136,0,33,7.2509765625E-6,44,56,35,1752,2837,469,2009,1959,1146,344,184,Tag0,unknown
1500020289137,0,58,1.2744140625E-5,44,56,35,1752,2837,469,2009,1959,1146,344,184,Tag0,unknown
1500020289137,0,65,1.42822265625E-5,44,56,35,1752,2837,469,2009,1959,1146,344,184,Tag0,unknown
1500020289137,0,40,8.7890625E-6,44,56,35,1752,2837,469,2009,1959,1146,344,184,Tag0,unknown
1500020289137,0,23,5.0537109375E-6,44,56,35,1752,2837,469,2009,1959,1146,344,184,Tag0,unknown
1500020289138,0,28,6.15234375E-6,44,56,35,1752,2837,469,2009,1959,1146,344,184,Tag0,unknown
1500020289138,0,59,1.29638671875E-5,44,56,35,1752,2837,469,2009,1959,1146,344,184,Tag0,unknown
1500020289138,0,83,1.82373046875E-5,44,56,35,1752,2837,469,2009,1959,1146,344,184,Tag0,unknown
1500020289138,0,84,1.8457031250000004E-5,44,56,35,1752,2837,469,2009,1959,1146,344,184,Tag0,unknown
1500020289154,0,73,1.6040039062500002E-5,44,56,35,1752,2837,469,2009,1959,1146,344,184,Tag0,unknown
1500020289154,0,74,1.6259765625E-5,44,56,35,1752,2837,469,2009,1959,1146,344,184,Tag0,unknown
1500020289164,0,85,1.86767578125E-5,44,56,35,1752,2837,469,2009,1959,1146,344,184,Tag0,unknown
1500020289164,0,86,1.8896484375000003E-5,44,56,35,1752,2837,469,2009,1959,1146,344,184,Tag0,unknown
1500020289164,0,75,1.64794921875E-5,44,56,35,1752,2837,469,2009,1959,1146,344,184,Tag0,unknown
1500020289164,0,73,1.6040039062500002E-5,44,56,35,1752,2837,469,2009,1959,1146,344,184,Tag0,unknown
1500020289165,0,76,1.669921875E-5,44,56,35,1752,2837,469,2009,1959,1146,344,184,Tag0,unknown
1500020289165,0,89,1.95556640625E-5,44,56,35,1752,2837,469,2009,1959,1146,344,184,Tag0,unknown
1500020289165,0,92,2.021484375E-5,44,56,35,1752,2837,469,2009,1959,1146,344,184,Tag0,unknown
1500020289165,0,80,1.7578125E-5,44,56,35,1752,2837,469,2009,1959,1146,344,184,Tag0,unknown
1500020289166,0,56,1.23046875E-5,44,56,35,1752,2837,469,2009,1959,1146,344,184,Tag0,unknown
1500020289166,0,48,1.0546875E-5,44,56,35,1752,2837,469,2009,1959,1146,344,184,Tag0,unknown
1500020289166,0,41,9.008789062499999E-6,44,56,35,1752,2837,469,2009,1959,1146,344,184,Tag0,unknown
1500020289166,0,39,8.5693359375E-6,44,56,35,1752,2837,469,2009,1959,1146,344,184,Tag0,unknown
1500020289167,0,37,8.1298828125E-6,44,56,35,1752,2837,469,2009,1959,1146,344,184,Tag0,unknown
1500020289167,0,38,8.349609375E-6,44,56,35,1752,2837,469,2009,1959,1146,344,184,Tag0,unknown
1500020289167,0,44,9.66796875E-6,44,56,35,1752,2837,469,2009,1959,1146,344,184,Tag0,unknown
1500020289167,0,44,9.66796875E-6,44,56,35,1752,2837,469,2009,1959,1146,344,184,Tag0,unknown
1500020289167,0,52,1.142578125E-5,44,56,35,1752,2837,469,2009,1959,1146,344,184,Tag0,unknown
1500020289168,0,52,1.142578125E-5,44,56,35,1752,2837,469,2009,1959,1146,344,184,Tag0,unknown
1500020289194,0,48,1.0546875E-5,44,56,35,1752,2837,469,2009,1959,1146,344,184,Tag0,unknown
1500020289194,0,54,1.1865234375000001E-5,44,56,35,1752,2837,469,2009,1959,1146,344,184,Tag0,unknown
1500020289195,0,74,1.6259765625E-5,44,56,35,1752,2837,469,2009,1959,1146,344,184,Tag0,unknown
1500020289197,0,97,2.13134765625E-5,44,56,35,1752,2837,469,2009,1959,1146,344,184,Tag0,unknown
1500020289198,0,103,2.26318359375E-5,44,56,35,1752,2837,469,2009,1959,1146,344,184,Tag0,unknown
1500020289198,0,81,1.77978515625E-5,44,56,35,1752,2837,469,2009,1959,1146,344,184,Tag0,unknown
1500020289198,0,52,1.142578125E-5,44,56,35,1752,2837,469,2009,1959,1146,344,184,Tag0,unknown
1500020289198,0,40,8.7890625E-6,44,56,35,1752,2837,469,2009,1959,1146,344,184,Tag0,unknown
1500020289199,0,56,1.23046875E-5,44,56,35,1752,2837,469,2009,1959,1146,344,184,Tag0,unknown
1500020289199,0,67,1.4721679687500002E-5,44,56,35,1752,2837,469,2009,1959,1146,344,184,Tag0,unknown
1500020289199,0,49,1.07666015625E-5,44,56,35,1752,2837,469,2009,1959,1146,344,184,Tag0,unknown
1500020289214,0,32,7.03125E-6,44,56,35,1752,2837,469,2009,1959,1146,344,184,Tag0,unknown
1500020289215,0,42,9.228515625000002E-6,44,56,35,1752,2837,469,2009,1959,1146,344,184,Tag0,unknown
1500020289215,0,73,1.6040039062500002E-5,44,56,35,1752,2837,469,2009,1959,1146,344,184,Tag0,unknown
1500020289216,0,88,1.93359375E-5,44,56,35,1752,2837,469,2009,1959,1146,344,184,Tag0,unknown
1500020289216,0,73,1.6040039062500002E-5,44,56,35,1752,2837,469,2009,1959,1146,344,184,Tag0,unknown
1500020289217,0,60,1.318359375E-5,44,56,35,1752,2837,469,2009,1959,1146,344,184,Tag0,unknown
1500020289217,0,59,1.29638671875E-5,44,56,35,1752,2837,469,2009,1959,1146,344,184,Tag0,unknown
1500020289218,0,60,1.318359375E-5,44,56,35,1752,2837,469,2009,1959,1146,344,184,Tag0,unknown
1500020289218,0,66,1.4501953125E-5,44,56,35,1752,2837,469,2009,1959,1146,344,184,Tag0,unknown
1500020289234,0,65,1.42822265625E-5,44,56,35,1752,2837,469,2009,1959,1146,344,184,Tag0,unknown
1500020289235,0,64,1.40625E-5,44,56,35,1752,2837,469,2009,1959,1146,344,184,Tag0,unknown
1500020289235,0,69,1.51611328125E-5,44,56,35,1752,2837,469,2009,1959,1146,344,184,Tag0,unknown
1500020289236,0,81,1.77978515625E-5,44,56,35,1752,2837,469,2009,1959,1146,344,184,Tag0,unknown
1500020289236,0,84,1.8457031250000004E-5,44,56,35,1752,2837,469,2009,1959,1146,344,184,Tag0,unknown
1500020289237,0,77,1.69189453125E-5,44,56,35,1752,2837,469,2009,1959,1146,344,184,Tag0,unknown
1500020289238,0,89,1.95556640625E-5,44,56,35,1752,2837,469,2009,1959,1146,344,184,Tag0,unknown
1500020289238,0,103,2.26318359375E-5,44,56,35,1752,2837,469,2009,1959,1146,344,184,Tag0,unknown
1500020289239,0,114,2.5048828125000003E-5,44,56,35,1752,2837,469,2009,1959,1146,344,184,Tag0,unknown
1500020289239,0,113,2.48291015625E-5,44,56,35,1752,2837,469,2009,1959,1146,344,184,Tag0,unknown
1500020289249,0,82,1.8017578124999998E-5,44,56,35,1752,2837,469,2009,1959,1146,344,184,Tag0,unknown
1500020289249,0,53,1.1645507812500002E-5,44,56,35,1752,2837,469,2009,1959,1146,344,184,Tag0,unknown
1500020289250,0,65,1.42822265625E-5,44,56,35,1752,2837,469,2009,1959,1146,344,184,Tag0,unknown
1500020289250,0,92,2.021484375E-5,44,56,35,1752,2837,469,2009,1959,1146,344,184,Tag0,unknown
1500020289252,0,119,2.6147460937500004E-5,44,56,35,1752,2837,469,2009,1959,1146,344,184,Tag0,unknown
1500020289252,0,109,2.39501953125E-5,44,56,35,1752,2837,469,2009,1959,1146,344,184,Tag0,unknown
1500020289253,0,74,1.6259765625E-5,44,56,35,1752,2837,469,2009,1959,1146,344,184,Tag0,unknown
1500020289253,0,54,1.1865234375000001E-5,44,56,35,1752,2837,469,2009,1959,1146,344,184,Tag0,unknown
1500020289254,0,72,1.58203125E-5,44,56,35,1752,2837,469,2009,1959,1146,344,184,Tag0,unknown
1500020289254,0,102,2.2412109374999998E-5,44,56,35,1752,2837,469,2009,1959,1146,344,184,Tag0,unknown
1500020289296,0,98,2.1533203125E-5,44,56,35,1752,2837,469,2009,1959,1146,344,184,Tag0,unknown
1500020289316,0,71,1.56005859375E-5,44,56,35,1752,2837,469,2009,1959,1146,344,184,Tag0,unknown
1500020289316,0,56,1.23046875E-5,44,56,35,1752,2837,469,2009,1959,1146,344,184,Tag0,unknown
1500020289317,0,64,1.40625E-5,44,56,35,1752,2837,469,2009,1959,1146,344,184,Tag0,unknown
1500020289318,0,70,1.5380859375E-5,44,56,35,1752,2837,469,2009,1959,1146,344,184,Tag0,unknown
1500020289319,0,64,1.40625E-5,44,56,35,1752,2837,469,2009,1959,1146,344,184,Tag0,unknown
1500020289320,0,43,9.448242187500001E-6,44,56,35,1752,2837,469,2009,1959,1146,344,184,Tag0,unknown
1500020289321,0,40,8.7890625E-6,44,56,35,1752,2837,469,2009,1959,1146,344,184,Tag0,unknown
1500020289321,0,56,1.23046875E-5,44,56,35,1752,2837,469,2009,1959,1146,344,184,Tag0,unknown
1500020289322,0,74,1.6259765625E-5,44,56,35,1752,2837,469,2009,1959,1146,344,184,Tag0,unknown
1500020289322,0,76,1.669921875E-5,44,56,35,1752,2837,469,2009,1959,1146,344,184,Tag0,unknown
1500020289323,0,73,1.6040039062500002E-5,44,56,35,1752,2837,469,2009,1959,1146,344,184,Tag0,unknown
1500020289323,0,72,1.58203125E-5,44,56,35,1752,2837,469,2009,1959,1146,344,184,Tag0,unknown
1500020289324,0,70,1.5380859375E-5,44,56,35,1752,2837,469,2009,1959,1146,344,184,Tag0,unknown
1500020289324,0,75,1.64794921875E-5,44,56,35,1752,2837,469,2009,1959,1146,344,184,Tag0,unknown
1500020289325,0,73,1.6040039062500002E-5,44,56,35,1752,2837,469,2009,1959,1146,344,184,Tag0,unknown
1500020289325,0,56,1.23046875E-5,44,56,35,1752,2837,469,2009,1959,1146,344,184,Tag0,unknown
1500020289326,0,45,9.8876953125E-6,44,56,35,1752,2837,469,2009,1959,1146,344,184,Tag0,unknown
1500020289326,0,64,1.40625E-5,44,56,35,1752,2837,469,2009,1959,1146,344,184,Tag0,unknown
1500020289326,0,92,2.021484375E-5,44,56,35,1752,2837,469,2009,1959,1146,344,184,Tag0,unknown
1500020289327,0,116,2.548828125E-5,44,56,35,1752,2837,469,2009,1959,1146,344,184,Tag0,unknown
1500020289327,0,103,2.26318359375E-5,44,56,35,1752,2837,469,2009,1959,1146,344,184,Tag0,unknown
1500020289327,0,72,1.58203125E-5,44,56,35,1752,2837,469,2009,1959,1146,344,184,Tag0,unknown
1500020289327,0,59,1.29638671875E-5,44,56,35,1752,2837,469,2009,1959,1146,344,184,Tag0,unknown
1500020289328,0,81,1.77978515625E-5,44,56,35,1752,2837,469,2009,1959,1146,344,184,Tag0,unknown
1500020289328,0,99,2.1752929687500003E-5,44,56,35,1752,2837,469,2009,1959,1146,344,184,Tag0,unknown
1500020289329,0,80,1.7578125E-5,44,56,35,1752,2837,469,2009,1959,1146,344,184,Tag0,unknown
1500020289329,0,54,1.1865234375000001E-5,44,56,35,1752,2837,469,2009,1959,1146,344,184,Tag0,unknown
1500020289330,0,54,1.1865234375000001E-5,44,56,35,1752,2837,469,2009,1959,1146,344,184,Tag0,unknown
1500020289331,0,81,1.77978515625E-5,44,56,35,1752,2837,469,2009,1959,1146,344,184,Tag0,unknown
1500020289360,0,112,2.4609375E-5,44,56,35,1752,2837,469,2009,1959,1146,344,184,Tag0,unknown
1500020289366,0,116,2.548828125E-5,44,56,35,1752,2837,469,2009,1959,1146,344,184,Tag0,unknown
1500020289367,0,92,2.021484375E-5,44,56,35,1752,2837,469,2009,1959,1146,344,184,Tag0,unknown
1500020289367,0,69,1.51611328125E-5,44,56,35,1752,2837,469,2009,1959,1146,344,184,Tag0,unknown
1500020289368,0,59,1.29638671875E-5,44,56,35,1752,2837,469,2009,1959,1146,344,184,Tag0,unknown
1500020289369,0,55,1.20849609375E-5,44,56,35,1752,2837,469,2009,1959,1146,344,184,Tag0,unknown
1500020289369,0,52,1.142578125E-5,44,56,35,1752,2837,469,2009,1959,1146,344,184,Tag0,unknown
1500020289369,0,49,1.07666015625E-5,44,56,35,1752,2837,469,2009,1959,1146,344,184,Tag0,unknown
1500020289370,0,57,1.2524414062500001E-5,44,56,35,1752,2837,469,2009,1959,1146,344,184,Tag0,unknown
1500020289371,0,59,1.29638671875E-5,44,56,35,1752,2837,469,2009,1959,1146,344,184,Tag0,unknown
1500020289371,0,48,1.0546875E-5,44,56,35,1752,2837,469,2009,1959,1146,344,184,Tag0,unknown
1500020289372,0,26,5.712890625E-6,44,56,35,1752,2837,469,2009,1959,1146,344,184,Tag0,unknown
1500020289373,0,5,1.0986328125E-6,44,56,35,1752,2837,469,2009,1959,1146,344,184,Tag0,unknown
1500020289373,0,5,1.0986328125E-6,44,56,35,1752,2837,469,2009,1959,1146,344,184,Tag0,unknown
1500020289374,0,21,4.614257812500001E-6,44,56,35,1752,2837,469,2009,1959,1146,344,184,Tag0,unknown
1500020289374,0,32,7.03125E-6,44,56,35,1752,2837,469,2009,1959,1146,344,184,Tag0,unknown
1500020289375,0,11,2.4169921875E-6,44,56,35,1752,2837,469,2009,1959,1146,344,184,Tag0,unknown
1500020289377,0,-269,-5.9106445312499996E-5,44,56,35,1752,2837,469,2009,1959,1146,344,184,Tag0,unknown
1500020289378,0,-284,-6.240234375E-5,44,56,35,1752,2837,469,2009,1959,1146,344,184,Tag0,unknown
1500020289378,0,-276,-6.064453125E-5,44,56,35,1752,2837,469,2009,1959,1146,344,184,Tag0,unknown
1500020289379,0,-268,-5.8886718750000006E-5,44,56,35,1752,2837,469,2009,1959,1146,344,184,Tag0,unknown
1500020289379,0,-282,-6.1962890625E-5,44,56,35,1752,2837,469,2009,1959,1146,344,184,Tag0,unknown
1500020289380,0,-306,-6.723632812500001E-5,44,56,35,1752,2837,469,2009,1959,1146,344,184,Tag0,unknown
1500020289380,0,-316,-6.943359375000001E-5,44,56,35,1752,2837,469,2009,1959,1146,344,184,Tag0,unknown
1500020289380,0,-305,-6.70166015625E-5,44,56,35,1752,2837,469,2009,1959,1146,344,184,Tag0,unknown
1500020289381,0,-290,-6.3720703125E-5,44,56,35,1752,2837,469,2009,1959,1146,344,184,Tag0,unknown
1500020289381,0,-284,-6.240234375E-5,44,56,35,1752,2837,469,2009,1959,1146,344,184,Tag0,unknown
1500020289381,0,-289,-6.35009765625E-5,44,56,35,1752,2837,469,2009,1959,1146,344,184,Tag0,unknown
1500020289381,0,-295,-6.48193359375E-5,44,56,35,1752,2837,469,2009,1959,1146,344,184,Tag0,unknown
1500020289382,0,-295,-6.48193359375E-5,44,56,35,1752,2837,469,2009,1959,1146,344,184,Tag0,unknown
1500020289429,0,-269,-5.9106445312499996E-5,44,56,35,1752,2837,469,2009,1959,1146,344,184,Tag0,unknown
1500020289429,0,13,2.8564453125E-6,44,56,35,1752,2837,469,2009,1959,1146,344,184,Tag0,unknown
1500020289450,0,29,6.3720703125E-6,44,56,35,1752,2837,469,2009,1959,1146,344,184,Tag0,unknown
1500020289451,0,28,6.15234375E-6,44,56,35,1752,2837,469,2009,1959,1146,344,184,Tag0,unknown
1500020289452,0,24,5.2734375E-6,44,56,35,1752,2837,469,2009,1959,1146,344,184,Tag0,unknown
1500020289452,0,27,5.9326171875000005E-6,44,56,35,1752,2837,469,2009,1959,1146,344,184,Tag0,unknown
1500020289453,0,35,7.6904296875E-6,44,56,35,1752,2837,469,2009,1959,1146,344,184,Tag0,unknown
1500020289453,0,37,8.1298828125E-6,44,56,35,1752,2837,469,2009,1959,1146,344,184,Tag0,unknown
1500020289454,0,40,8.7890625E-6,44,56,35,1752,2837,469,2009,1959,1146,344,184,Tag0,unknown
1500020289454,0,51,1.1206054687499999E-5,44,56,35,1752,2837,469,2009,1959,1146,344,184,Tag0,unknown
1500020289455,0,71,1.56005859375E-5,44,56,35,1752,2837,469,2009,1959,1146,344,184,Tag0,unknown
1500020289455,0,87,1.91162109375E-5,44,56,35,1752,2837,469,2009,1959,1146,344,184,Tag0,unknown
1500020289456,0,96,2.109375E-5,44,56,35,1752,2837,469,2009,1959,1146,344,184,Tag0,unknown
1500020289456,0,84,1.8457031250000004E-5,44,56,35,1752,2837,469,2009,1959,1146,344,184,Tag0,unknown
1500020289457,0,72,1.58203125E-5,44,56,35,1752,2837,469,2009,1959,1146,344,184,Tag0,unknown
1500020289457,0,86,1.8896484375000003E-5,44,56,35,1752,2837,469,2009,1959,1146,344,184,Tag0,unknown
1500020289458,0,107,2.35107421875E-5,44,56,35,1752,2837,469,2009,1959,1146,344,184,Tag0,unknown
1500020289458,0,100,2.197265625E-5,44,56,35,1752,2837,469,2009,1959,1146,344,184,Tag0,unknown
1500020289459,0,83,1.82373046875E-5,44,56,35,1752,2837,469,2009,1959,1146,344,184,Tag0,unknown
1500020289459,0,70,1.5380859375E-5,44,56,35,1752,2837,469,2009,1959,1146,344,184,Tag0,unknown
1500020289460,0,60,1.318359375E-5,44,56,35,1752,2837,469,2009,1959,1146,344,184,Tag0,unknown
1500020289461,0,72,1.58203125E-5,44,56,35,1752,2837,469,2009,1959,1146,344,184,Tag0,unknown
1500020289462,0,68,1.4941406250000001E-5,44,69,35,16747592,27554,14370,11498,9411,4097,4309,1571,Tag0,unknown
1500020289462,0,44,9.66796875E-6,44,69,35,16747592,27554,14370,11498,9411,4097,4309,1571,Tag0,unknown
1500020289463,0,39,8.5693359375E-6,44,69,35,16747592,27554,14370,11498,9411,4097,4309,1571,Tag0,unknown
1500020289463,0,48,1.0546875E-5,44,69,35,16747592,27554,14370,11498,9411,4097,4309,1571,Tag0,unknown
1500020289464,0,50,1.0986328125E-5,44,69,35,16747592,27554,14370,11498,9411,4097,4309,1571,Tag0,unknown
1500020289465,0,32,7.03125E-6,44,69,35,16747592,27554,14370,11498,9411,4097,4309,1571,Tag0,unknown
1500020289465,0,12,2.63671875E-6,44,69,35,16747592,27554,14370,11498,9411,4097,4309,1571,Tag0,unknown
1500020289466,0,8,1.7578125E-6,44,69,35,16747592,27554,14370,11498,9411,4097,4309,1571,Tag0,unknown
1500020289467,0,25,5.4931640625E-6,44,69,35,16747592,27554,14370,11498,9411,4097,4309,1571,Tag0,unknown
1500020289467,0,60,1.318359375E-5,44,69,35,16747592,27554,14370,11498,9411,4097,4309,1571,Tag0,unknown
1500020289468,0,87,1.91162109375E-5,44,69,35,16747592,27554,14370,11498,9411,4097,4309,1571,Tag0,unknown
1500020289468,0,76,1.669921875E-5,44,69,35,16747592,27554,14370,11498,9411,4097,4309,1571,Tag0,unknown
1500020289469,0,68,1.4941406250000001E-5,44,69,35,16747592,27554,14370,11498,9411,4097,4309,1571,Tag0,unknown
1500020289469,0,90,1.9775390625E-5,44,69,35,16747592,27554,14370,11498,9411,4097,4309,1571,Tag0,unknown
1500020289470,0,112,2.4609375E-5,44,69,35,16747592,27554,14370,11498,9411,4097,4309,1571,Tag0,unknown
1500020289470,0,102,2.2412109374999998E-5,44,69,35,16747592,27554,14370,11498,9411,4097,4309,1571,Tag0,unknown
1500020289471,0,86,1.8896484375000003E-5,44,69,35,16747592,27554,14370,11498,9411,4097,4309,1571,Tag0,unknown
1500020289471,0,75,1.64794921875E-5,44,69,35,16747592,27554,14370,11498,9411,4097,4309,1571,Tag0,unknown
1500020289472,0,81,1.77978515625E-5,44,69,35,16747592,27554,14370,11498,9411,4097,4309,1571,Tag0,unknown
1500020289472,0,92,2.021484375E-5,44,69,35,16747592,27554,14370,11498,9411,4097,4309,1571,Tag0,unknown
1500020289473,0,106,2.3291015625000003E-5,44,69,35,16747592,27554,14370,11498,9411,4097,4309,1571,Tag0,unknown
1500020289473,0,103,2.26318359375E-5,44,69,35,16747592,27554,14370,11498,9411,4097,4309,1571,Tag0,unknown
1500020289473,0,89,1.95556640625E-5,44,69,35,16747592,27554,14370,11498,9411,4097,4309,1571,Tag0,unknown
1500020289486,0,85,1.86767578125E-5,44,69,35,16747592,27554,14370,11498,9411,4097,4309,1571,Tag0,unknown
1500020289487,0,99,2.1752929687500003E-5,44,69,35,16747592,27554,14370,11498,9411,4097,4309,1571,Tag0,unknown
1500020289503,0,114,2.5048828125000003E-5,44,69,35,16747592,27554,14370,11498,9411,4097,4309,1571,Tag0,unknown
1500020289504,0,108,2.3730468750000002E-5,44,69,35,16747592,27554,14370,11498,9411,4097,4309,1571,Tag0,unknown
1500020289504,0,92,2.021484375E-5,44,69,35,16747592,27554,14370,11498,9411,4097,4309,1571,Tag0,unknown
1500020289504,0,98,2.1533203125E-5,44,69,35,16747592,27554,14370,11498,9411,4097,4309,1571,Tag0,unknown
1500020289504,0,113,2.48291015625E-5,44,69,35,16747592,27554,14370,11498,9411,4097,4309,1571,Tag0,unknown
1500020289504,0,119,2.6147460937500004E-5,44,69,35,16747592,27554,14370,11498,9411,4097,4309,1571,Tag0,unknown
1500020289504,0,118,2.5927734375E-5,44,69,35,16747592,27554,14370,11498,9411,4097,4309,1571,Tag0,unknown
1500020289504,0,106,2.3291015625000003E-5,44,69,35,16747592,27554,14370,11498,9411,4097,4309,1571,Tag0,unknown
1500020289505,0,97,2.13134765625E-5,44,69,35,16747592,27554,14370,11498,9411,4097,4309,1571,Tag0,unknown
1500020289505,0,85,1.86767578125E-5,44,69,35,16747592,27554,14370,11498,9411,4097,4309,1571,Tag0,unknown
1500020289505,0,86,1.8896484375000003E-5,44,69,35,16747592,27554,14370,11498,9411,4097,4309,1571,Tag0,unknown
1500020289505,0,97,2.13134765625E-5,44,69,35,16747592,27554,14370,11498,9411,4097,4309,1571,Tag0,unknown
1500020289505,0,86,1.8896484375000003E-5,44,69,35,16747592,27554,14370,11498,9411,4097,4309,1571,Tag0,unknown
1500020289505,0,71,1.56005859375E-5,44,69,35,16747592,27554,14370,11498,9411,4097,4309,1571,Tag0,unknown
1500020289506,0,84,1.8457031250000004E-5,44,69,35,16747592,27554,14370,11498,9411,4097,4309,1571,Tag0,unknown
1500020289506,0,113,2.48291015625E-5,44,69,35,16747592,27554,14370,11498,9411,4097,4309,1571,Tag0,unknown
1500020289506,0,114,2.5048828125000003E-5,44,69,35,16747592,27554,14370,11498,9411,4097,4309,1571,Tag0,unknown
1500020289506,0,88,1.93359375E-5,44,69,35,16747592,27554,14370,11498,9411,4097,4309,1571,Tag0,unknown
1500020289523,0,74,1.6259765625E-5,44,69,35,16747592,27554,14370,11498,9411,4097,4309,1571,Tag0,unknown
1500020289523,0,76,1.669921875E-5,44,69,35,16747592,27554,14370,11498,9411,4097,4309,1571,Tag0,unknown
1500020289534,0,87,1.91162109375E-5,44,69,35,16747592,27554,14370,11498,9411,4097,4309,1571,Tag0,unknown
1500020289534,0,100,2.197265625E-5,44,69,35,16747592,27554,14370,11498,9411,4097,4309,1571,Tag0,unknown
1500020289534,0,100,2.197265625E-5,44,69,35,16747592,27554,14370,11498,9411,4097,4309,1571,Tag0,unknown
1500020289534,0,80,1.7578125E-5,44,69,35,16747592,27554,14370,11498,9411,4097,4309,1571,Tag0,unknown
1500020289534,0,65,1.42822265625E-5,44,69,35,16747592,27554,14370,11498,9411,4097,4309,1571,Tag0,unknown
1500020289535,0,71,1.56005859375E-5,44,69,35,16747592,27554,14370,11498,9411,4097,4309,1571,Tag0,unknown
1500020289535,0,96,2.109375E-5,44,69,35,16747592,27554,14370,11498,9411,4097,4309,1571,Tag0,unknown
1500020289535,0,104,2.28515625E-5,44,69,35,16747592,27554,14370,11498,9411,4097,4309,1571,Tag0,unknown
1500020289535,0,87,1.91162109375E-5,44,69,35,16747592,27554,14370,11498,9411,4097,4309,1571,Tag0,unknown
1500020289535,0,73,1.6040039062500002E-5,44,69,35,16747592,27554,14370,11498,9411,4097,4309,1571,Tag0,unknown
1500020289535,0,81,1.77978515625E-5,44,69,35,16747592,27554,14370,11498,9411,4097,4309,1571,Tag0,unknown
1500020289535,0,97,2.13134765625E-5,44,69,35,16747592,27554,14370,11498,9411,4097,4309,1571,Tag0,unknown
1500020289536,0,109,2.39501953125E-5,44,69,35,16747592,27554,14370,11498,9411,4097,4309,1571,Tag0,unknown
1500020289536,0,117,2.5708007812499998E-5,44,69,35,16747592,27554,14370,11498,9411,4097,4309,1571,Tag0,unknown
1500020289536,0,125,2.74658203125E-5,44,69,35,16747592,27554,14370,11498,9411,4097,4309,1571,Tag0,unknown
1500020289536,0,-124,-2.724609375E-5,44,69,35,16747592,27554,14370,11498,9411,4097,4309,1571,Tag0,unknown
1500020289536,0,-117,-2.5708007812499998E-5,44,69,35,16747592,27554,14370,11498,9411,4097,4309,1571,Tag0,unknown
1500020289536,0,-104,-2.28515625E-5,44,69,35,16747592,27554,14370,11498,9411,4097,4309,1571,Tag0,unknown
1500020289559,0,-89,-1.95556640625E-5,44,69,35,16747592,27554,14370,11498,9411,4097,4309,1571,Tag0,unknown
1500020289559,0,-78,-1.7138671875E-5,44,69,35,16747592,27554,14370,11498,9411,4097,4309,1571,Tag0,unknown
1500020289559,0,-59,-1.29638671875E-5,44,69,35,16747592,27554,14370,11498,9411,4097,4309,1571,Tag0,unknown
1500020289575,0,-45,-9.8876953125E-6,44,69,35,16747592,27554,14370,11498,9411,4097,4309,1571,Tag0,unknown
1500020289576,0,-43,-9.448242187500001E-6,44,69,35,16747592,27554,14370,11498,9411,4097,4309,1571,Tag0,unknown
1500020289577,0,-57,-1.2524414062500001E-5,44,69,35,16747592,27554,14370,11498,9411,4097,4309,1571,Tag0,unknown
1500020289578,0,-77,-1.69189453125E-5,44,69,35,16747592,27554,14370,11498,9411,4097,4309,1571,Tag0,unknown
1500020289578,0,-21,-4.614257812500001E-6,44,69,35,16747592,27554,14370,11498,9411,4097,4309,1571,Tag0,unknown
1500020289579,0,316,6.943359375000001E-5,44,69,35,16747592,27554,14370,11498,9411,4097,4309,1571,Tag0,unknown
1500020289579,0,344,7.558593750000001E-5,44,69,35,16747592,27554,14370,11498,9411,4097,4309,1571,Tag0,unknown
1500020289580,0,358,7.8662109375E-5,44,69,35,16747592,27554,14370,11498,9411,4097,4309,1571,Tag0,unknown
1500020289580,0,374,8.2177734375E-5,44,69,35,16747592,27554,14370,11498,9411,4097,4309,1571,Tag0,unknown
1500020289581,0,376,8.261718750000001E-5,44,69,35,16747592,27554,14370,11498,9411,4097,4309,1571,Tag0,unknown
1500020289581,0,368,8.0859375E-5,44,69,35,16747592,27554,14370,11498,9411,4097,4309,1571,Tag0,unknown
1500020289582,0,370,8.1298828125E-5,44,69,35,16747592,27554,14370,11498,9411,4097,4309,1571,Tag0,unknown
1500020289583,0,379,8.32763671875E-5,44,69,35,16747592,27554,14370,11498,9411,4097,4309,1571,Tag0,unknown
1500020289583,0,136,2.9882812500000002E-5,44,69,35,16747592,27554,14370,11498,9411,4097,4309,1571,Tag0,unknown
1500020289584,0,155,3.40576171875E-5,44,69,35,16747592,27554,14370,11498,9411,4097,4309,1571,Tag0,unknown
1500020289584,0,195,4.28466796875E-5,44,69,35,16747592,27554,14370,11498,9411,4097,4309,1571,Tag0,unknown
1500020289585,0,229,5.03173828125E-5,44,69,35,16747592,27554,14370,11498,9411,4097,4309,1571,Tag0,unknown
1500020289595,0,224,4.921875E-5,44,69,35,16747592,27554,14370,11498,9411,4097,4309,1571,Tag0,unknown
1500020289606,0,185,4.06494140625E-5,44,69,35,16747592,27554,14370,11498,9411,4097,4309,1571,Tag0,unknown
1500020289607,0,168,3.691406250000001E-5,44,69,35,16747592,27554,14370,11498,9411,4097,4309,1571,Tag0,unknown
1500020289607,0,181,3.9770507812500004E-5,44,69,35,16747592,27554,14370,11498,9411,4097,4309,1571,Tag0,unknown
1500020289608,0,184,4.04296875E-5,44,69,35,16747592,27554,14370,11498,9411,4097,4309,1571,Tag0,unknown
1500020289608,0,150,3.2958984375E-5,44,69,35,16747592,27554,14370,11498,9411,4097,4309,1571,Tag0,unknown
1500020289609,0,356,7.822265625E-5,44,69,35,16747592,27554,14370,11498,9411,4097,4309,1571,Tag0,unknown
1500020289609,0,329,7.229003906250001E-5,44,69,35,16747592,27554,14370,11498,9411,4097,4309,1571,Tag0,unknown
1500020289610,0,328,7.207031249999999E-5,44,69,35,16747592,27554,14370,11498,9411,4097,4309,1571,Tag0,unknown
1500020289610,0,323,7.09716796875E-5,44,69,35,16747592,27554,14370,11498,9411,4097,4309,1571,Tag0,unknown
1500020289611,0,289,6.35009765625E-5,44,69,35,16747592,27554,14370,11498,9411,4097,4309,1571,Tag0,unknown
1500020289611,0,-15,-3.2958984375E-6,44,69,35,16747592,27554,14370,11498,9411,4097,4309,1571,Tag0,unknown
1500020289612,0,-42,-9.228515625000002E-6,44,69,35,16747592,27554,14370,11498,9411,4097,4309,1571,Tag0,unknown
1500020289612,0,-56,-1.23046875E-5,44,69,35,16747592,27554,14370,11498,9411,4097,4309,1571,Tag0,unknown
1500020289613,0,-62,-1.3623046875E-5,44,69,35,16747592,27554,14370,11498,9411,4097,4309,1571,Tag0,unknown
1500020289613,0,-83,-1.82373046875E-5,44,69,35,16747592,27554,14370,11498,9411,4097,4309,1571,Tag0,unknown
1500020289613,0,-109,-2.39501953125E-5,44,69,35,16747592,27554,14370,11498,9411,4097,4309,1571,Tag0,unknown
1500020289614,0,112,2.4609375E-5,44,69,35,16747592,27554,14370,11498,9411,4097,4309,1571,Tag0,unknown
1500020289614,0,68,1.4941406250000001E-5,44,69,35,16747592,27554,14370,11498,9411,4097,4309,1571,Tag0,unknown
1500020289614,0,27,5.9326171875000005E-6,44,69,35,16747592,27554,14370,11498,9411,4097,4309,1571,Tag0,unknown
1500020289631,0,4,8.7890625E-7,44,69,35,16747592,27554,14370,11498,9411,4097,4309,1571,Tag0,unknown
1500020289635,0,-268,-5.8886718750000006E-5,44,69,35,16747592,27554,14370,11498,9411,4097,4309,1571,Tag0,unknown
1500020289636,0,-294,-6.4599609375E-5,44,69,35,16747592,27554,14370,11498,9411,4097,4309,1571,Tag0,unknown
1500020289636,0,-310,-6.8115234375E-5,44,69,35,16747592,27554,14370,11498,9411,4097,4309,1571,Tag0,unknown
1500020289636,0,-317,-6.96533203125E-5,44,69,35,16747592,27554,14370,11498,9411,4097,4309,1571,Tag0,unknown
1500020289636,0,-337,-7.40478515625E-5,44,69,35,16747592,27554,14370,11498,9411,4097,4309,1571,Tag0,unknown
1500020289637,0,-357,-7.844238281250001E-5,44,69,35,16747592,27554,14370,11498,9411,4097,4309,1571,Tag0,unknown
1500020289637,0,-370,-8.1298828125E-5,44,69,35,16747592,27554,14370,11498,9411,4097,4309,1571,Tag0,unknown
1500020289637,0,-376,-8.261718750000001E-5,44,69,35,16747592,27554,14370,11498,9411,4097,4309,1571,Tag0,unknown
1500020289637,0,-377,-8.28369140625E-5,44,69,35,16747592,27554,14370,11498,9411,4097,4309,1571,Tag0,unknown
1500020289653,0,-370,-8.1298828125E-5,44,69,35,16747592,27554,14370,11498,9411,4097,4309,1571,Tag0,unknown
1500020289653,0,-362,-7.954101562500001E-5,44,69,35,16747592,27554,14370,11498,9411,4097,4309,1571,Tag0,unknown
1500020289653,0,-370,-8.1298828125E-5,44,69,35,16747592,27554,14370,11498,9411,4097,4309,1571,Tag0,unknown
1500020289653,0,-378,-8.3056640625E-5,44,69,35,16747592,27554,14370,11498,9411,4097,4309,1571,Tag0,unknown
1500020289654,0,-147,-3.22998046875E-5,44,69,35,16747592,27554,14370,11498,9411,4097,4309,1571,Tag0,unknown
1500020289654,0,-177,-3.8891601562500006E-5,44,69,35,16747592,27554,14370,11498,9411,4097,4309,1571,Tag0,unknown
1500020289654,0,-203,-4.460449218750001E-5,44,69,35,16747592,27554,14370,11498,9411,4097,4309,1571,Tag0,unknown
1500020289654,0,-217,-4.76806640625E-5,44,69,35,16747592,27554,14370,11498,9411,4097,4309,1571,Tag0,unknown
1500020289655,0,-213,-4.68017578125E-5,44,69,35,16747592,27554,14370,11498,9411,4097,4309,1571,Tag0,unknown
1500020289655,0,-197,-4.32861328125E-5,44,69,35,16747592,27554,14370,11498,9411,4097,4309,1571,Tag0,unknown
1500020289669,0,-182,-3.9990234375E-5,44,69,35,16747592,27554,14370,11498,9411,4097,4309,1571,Tag0,unknown
1500020289686,0,-189,-4.15283203125E-5,44,69,35,16747592,27554,14370,11498,9411,4097,4309,1571,Tag0,unknown
1500020289686,0,-214,-4.7021484375E-5,44,69,35,16747592,27554,14370,11498,9411,4097,4309,1571,Tag0,unknown
1500020289687,0,-215,-4.72412109375E-5,44,69,35,16747592,27554,14370,11498,9411,4097,4309,1571,Tag0,unknown
1500020289687,0,-195,-4.28466796875E-5,44,69,35,16747592,27554,14370,11498,9411,4097,4309,1571,Tag0,unknown
1500020289687,0,-169,-3.7133789062499996E-5,44,69,35,16747592,27554,14370,11498,9411,4097,4309,1571,Tag0,unknown
1500020289688,0,-154,-3.3837890625E-5,44,69,35,16747592,27554,14370,11498,9411,4097,4309,1571,Tag0,unknown
1500020289688,0,-136,-2.9882812500000002E-5,44,69,35,16747592,27554,14370,11498,9411,4097,4309,1571,Tag0,unknown
1500020289689,0,-131,-2.87841796875E-5,44,69,35,16747592,27554,14370,11498,9411,4097,4309,1571,Tag0,unknown
1500020289690,0,-145,-3.18603515625E-5,44,69,35,16747592,27554,14370,11498,9411,4097,4309,1571,Tag0,unknown
1500020289690,0,-146,-3.2080078125000004E-5,44,69,35,16747592,27554,14370,11498,9411,4097,4309,1571,Tag0,unknown
1500020289691,0,-147,-3.22998046875E-5,44,69,35,16747592,27554,14370,11498,9411,4097,4309,1571,Tag0,unknown
1500020289691,0,-171,-3.75732421875E-5,44,69,35,16747592,27554,14370,11498,9411,4097,4309,1571,Tag0,unknown
1500020289692,0,-179,-3.93310546875E-5,44,69,35,16747592,27554,14370,11498,9411,4097,4309,1571,Tag0,unknown
1500020289692,0,-158,-3.4716796875000005E-5,44,69,35,16747592,27554,14370,11498,9411,4097,4309,1571,Tag0,unknown
1500020289693,0,-131,-2.87841796875E-5,44,69,35,16747592,27554,14370,11498,9411,4097,4309,1571,Tag0,unknown
1500020289693,0,-375,-8.23974609375E-5,44,69,35,16747592,27554,14370,11498,9411,4097,4309,1571,Tag0,unknown
1500020289694,0,-135,-2.96630859375E-5,44,69,35,16747592,27554,14370,11498,9411,4097,4309,1571,Tag0,unknown
1500020289694,0,-153,-3.3618164062500004E-5,44,69,35,16747592,27554,14370,11498,9411,4097,4309,1571,Tag0,unknown
1500020289695,0,-142,-3.1201171875E-5,44,69,35,16747592,27554,14370,11498,9411,4097,4309,1571,Tag0,unknown
1500020289710,0,-369,-8.10791015625E-5,44,69,35,16747592,27554,14370,11498,9411,4097,4309,1571,Tag0,unknown
1500020289723,0,-346,-7.6025390625E-5,44,69,35,16747592,27554,14370,11498,9411,4097,4309,1571,Tag0,unknown
1500020289724,0,-349,-7.668457031250001E-5,44,69,35,16747592,27554,14370,11498,9411,4097,4309,1571,Tag0,unknown
1500020289724,0,-369,-8.10791015625E-5,44,69,35,16747592,27554,14370,11498,9411,4097,4309,1571,Tag0,unknown
1500020289725,0,-371,-8.151855468750001E-5,44,69,35,16747592,27554,14370,11498,9411,4097,4309,1571,Tag0,unknown
1500020289725,0,-369,-8.10791015625E-5,44,69,35,16747592,27554,14370,11498,9411,4097,4309,1571,Tag0,unknown
1500020289726,0,-363,-7.97607421875E-5,44,69,35,16747592,27554,14370,11498,9411,4097,4309,1571,Tag0,unknown
1500020289726,0,-354,-7.778320312500001E-5,44,69,35,16747592,27554,14370,11498,9411,4097,4309,1571,Tag0,unknown
1500020289726,0,-354,-7.778320312500001E-5,44,69,35,16747592,27554,14370,11498,9411,4097,4309,1571,Tag0,unknown
1500020289727,0,-354,-7.778320312500001E-5,44,69,35,16747592,27554,14370,11498,9411,4097,4309,1571,Tag0,unknown
1500020289727,0,-339,-7.448730468750001E-5,44,69,35,16747592,27554,14370,11498,9411,4097,4309,1571,Tag0,unknown
1500020289728,0,-321,-7.053222656250001E-5,44,69,35,16747592,27554,14370,11498,9411,4097,4309,1571,Tag0,unknown
1500020289728,0,-296,-6.50390625E-5,44,69,35,16747592,27554,14370,11498,9411,4097,4309,1571,Tag0,unknown
1500020289729,0,-267,-5.86669921875E-5,44,69,35,16747592,27554,14370,11498,9411,4097,4309,1571,Tag0,unknown
1500020289729,0,-259,-5.69091796875E-5,44,69,35,16747592,27554,14370,11498,9411,4097,4309,1571,Tag0,unknown
1500020289730,0,-274,-6.0205078124999997E-5,44,69,35,16747592,27554,14370,11498,9411,4097,4309,1571,Tag0,unknown
1500020289730,0,-299,-6.56982421875E-5,44,69,35,16747592,27554,14370,11498,9411,4097,4309,1571,Tag0,unknown
1500020289731,0,-313,-6.87744140625E-5,44,69,35,16747592,27554,14370,11498,9411,4097,4309,1571,Tag0,unknown
1500020289732,0,-311,-6.833496093750001E-5,44,69,35,16747592,27554,14370,11498,9411,4097,4309,1571,Tag0,unknown
1500020289732,0,-306,-6.723632812500001E-5,44,69,35,16747592,27554,14370,11498,9411,4097,4309,1571,Tag0,unknown
1500020289748,0,-298,-6.5478515625E-5,44,69,35,16747592,27554,14370,11498,9411,4097,4309,1571,Tag0,unknown
1500020289753,0,-293,-6.43798828125E-5,44,69,35,16747592,27554,14370,11498,9411,4097,4309,1571,Tag0,unknown
1500020289753,0,-296,-6.50390625E-5,44,69,35,16747592,27554,14370,11498,9411,4097,4309,1571,Tag0,unknown
1500020289754,0,-294,-6.4599609375E-5,44,69,35,16747592,27554,14370,11498,9411,4097,4309,1571,Tag0,unknown
1500020289754,0,-276,-6.064453125E-5,44,69,35,16747592,27554,14370,11498,9411,4097,4309,1571,Tag0,unknown
1500020289754,0,-260,-5.712890625E-5,44,69,35,16747592,27554,14370,11498,9411,4097,4309,1571,Tag0,unknown
1500020289754,0,-257,-5.64697265625E-5,44,69,35,16747592,27554,14370,11498,9411,4097,4309,1571,Tag0,unknown
1500020289754,0,-263,-5.7788085937500005E-5,44,69,35,16747592,27554,14370,11498,9411,4097,4309,1571,Tag0,unknown
1500020289755,0,-266,-5.8447265625E-5,44,69,35,16747592,27554,14370,11498,9411,4097,4309,1571,Tag0,unknown
1500020289755,0,-258,-5.6689453125000004E-5,44,69,35,16747592,27554,14370,11498,9411,4097,4309,1571,Tag0,unknown
1500020289755,0,6,1.318359375E-6,44,69,35,16747592,27554,14370,11498,9411,4097,4309,1571,Tag0,unknown
1500020289755,0,1,2.197265625E-7,44,69,35,16747592,27554,14370,11498,9411,4097,4309,1571,Tag0,unknown
1500020289756,0,-261,-5.73486328125E-5,44,69,35,16747592,27554,14370,11498,9411,4097,4309,1571,Tag0,unknown
1500020289756,0,-262,-5.7568359375E-5,44,69,35,16747592,27554,14370,11498,9411,4097,4309,1571,Tag0,unknown
1500020289756,0,1,2.197265625E-7,44,69,35,16747592,27554,14370,11498,9411,4097,4309,1571,Tag0,unknown
1500020289756,0,17,3.7353515625000003E-6,44,69,35,16747592,27554,14370,11498,9411,4097,4309,1571,Tag0,unknown
1500020289757,0,25,5.4931640625E-6,44,69,35,16747592,27554,14370,11498,9411,4097,4309,1571,Tag0,unknown
1500020289757,0,22,4.833984375E-6,44,69,35,16747592,27554,14370,11498,9411,4097,4309,1571,Tag0,unknown
1500020289770,0,17,3.7353515625000003E-6,44,69,35,16747592,27554,14370,11498,9411,4097,4309,1571,Tag0,unknown
1500020289770,0,19,4.1748046875E-6,44,69,35,16747592,27554,14370,11498,9411,4097,4309,1571,Tag0,unknown
1500020289789,0,40,8.7890625E-6,44,69,47,16747592,27554,14370,11498,9411,4097,4309,1571,Tag0,unknown
1500020289789,0,69,1.51611328125E-5,44,69,47,16747592,27554,14370,11498,9411,4097,4309,1571,Tag0,unknown
1500020289790,0,85,1.86767578125E-5,44,69,47,16747592,27554,14370,11498,9411,4097,4309,1571,Tag0,unknown
1500020289790,0,77,1.69189453125E-5,44,69,47,16747592,27554,14370,11498,9411,4097,4309,1571,Tag0,unknown
1500020289790,0,66,1.4501953125E-5,44,69,47,16747592,27554,14370,11498,9411,4097,4309,1571,Tag0,unknown
1500020289790,0,64,1.40625E-5,44,69,47,16747592,27554,14370,11498,9411,4097,4309,1571,Tag0,unknown
1500020289790,0,69,1.51611328125E-5,44,69,47,16747592,27554,14370,11498,9411,4097,4309,1571,Tag0,unknown
1500020289791,0,81,1.77978515625E-5,44,69,47,16747592,27554,14370,11498,9411,4097,4309,1571,Tag0,unknown
1500020289791,0,82,1.8017578124999998E-5,44,69,47,16747592,27554,14370,11498,9411,4097,4309,1571,Tag0,unknown
1500020289791,0,73,1.6040039062500002E-5,44,69,47,16747592,27554,14370,11498,9411,4097,4309,1571,Tag0,unknown
1500020289804,0,69,1.51611328125E-5,44,69,47,16747592,27554,14370,11498,9411,4097,4309,1571,Tag0,unknown
1500020289804,0,71,1.56005859375E-5,44,69,47,16747592,27554,14370,11498,9411,4097,4309,1571,Tag0,unknown
1500020289805,0,73,1.6040039062500002E-5,44,69,47,16747592,27554,14370,11498,9411,4097,4309,1571,Tag0,unknown
1500020289806,0,82,1.8017578124999998E-5,44,69,47,16747592,27554,14370,11498,9411,4097,4309,1571,Tag0,unknown
1500020289806,0,88,1.93359375E-5,44,69,47,16747592,27554,14370,11498,9411,4097,4309,1571,Tag0,unknown
1500020289807,0,76,1.669921875E-5,44,69,47,16747592,27554,14370,11498,9411,4097,4309,1571,Tag0,unknown
1500020289807,0,69,1.51611328125E-5,44,69,47,16747592,27554,14370,11498,9411,4097,4309,1571,Tag0,unknown
1500020289807,0,69,1.51611328125E-5,44,69,47,16747592,27554,14370,11498,9411,4097,4309,1571,Tag0,unknown
1500020289809,0,66,1.4501953125E-5,44,69,47,16747592,27554,14370,11498,9411,4097,4309,1571,Tag0,unknown
1500020289809,0,57,1.2524414062500001E-5,44,69,47,16747592,27554,14370,11498,9411,4097,4309,1571,Tag0,unknown
1500020289859,0,60,1.318359375E-5,44,69,47,16747592,27554,14370,11498,9411,4097,4309,1571,Tag0,unknown
1500020289860,0,70,1.5380859375E-5,44,69,47,16747592,27554,14370,11498,9411,4097,4309,1571,Tag0,unknown
1500020289871,0,76,1.669921875E-5,44,69,47,16747592,27554,14370,11498,9411,4097,4309,1571,Tag0,unknown
1500020289872,0,83,1.82373046875E-5,44,69,47,16747592,27554,14370,11498,9411,4097,4309,1571,Tag0,unknown
1500020289872,0,93,2.04345703125E-5,44,69,47,16747592,27554,14370,11498,9411,4097,4309,1571,Tag0,unknown
1500020289873,0,102,2.2412109374999998E-5,44,69,47,16747592,27554,14370,11498,9411,4097,4309,1571,Tag0,unknown
1500020289873,0,98,2.1533203125E-5,44,69,47,16747592,27554,14370,11498,9411,4097,4309,1571,Tag0,unknown
1500020289874,0,77,1.69189453125E-5,44,69,47,16747592,27554,14370,11498,9411,4097,4309,1571,Tag0,unknown
1500020289874,0,60,1.318359375E-5,44,69,47,16747592,27554,14370,11498,9411,4097,4309,1571,Tag0,unknown
1500020289875,0,64,1.40625E-5,44,69,47,16747592,27554,14370,11498,9411,4097,4309,1571,Tag0,unknown
1500020289875,0,74,1.6259765625E-5,44,69,47,16747592,27554,14370,11498,9411,4097,4309,1571,Tag0,unknown
1500020289876,0,80,1.7578125E-5,44,69,47,16747592,27554,14370,11498,9411,4097,4309,1571,Tag0,unknown
1500020289876,0,70,1.5380859375E-5,44,69,47,16747592,27554,14370,11498,9411,4097,4309,1571,Tag0,unknown
1500020289877,0,66,1.4501953125E-5,44,69,47,16747592,27554,14370,11498,9411,4097,4309,1571,Tag0,unknown
1500020289877,0,74,1.6259765625E-5,44,69,47,16747592,27554,14370,11498,9411,4097,4309,1571,Tag0,unknown
1500020289878,0,91,1.99951171875E-5,44,69,47,16747592,27554,14370,11498,9411,4097,4309,1571,Tag0,unknown
1500020289878,0,99,2.1752929687500003E-5,44,69,47,16747592,27554,14370,11498,9411,4097,4309,1571,Tag0,unknown
1500020289879,0,106,2.3291015625000003E-5,44,69,47,16747592,27554,14370,11498,9411,4097,4309,1571,Tag0,unknown
1500020289879,0,116,2.548828125E-5,44,69,47,16747592,27554,14370,11498,9411,4097,4309,1571,Tag0,unknown
1500020289879,0,106,2.3291015625000003E-5,44,69,47,16747592,27554,14370,11498,9411,4097,4309,1571,Tag0,unknown
1500020289880,0,85,1.86767578125E-5,44,69,47,16747592,27554,14370,11498,9411,4097,4309,1571,Tag0,unknown
1500020289880,0,87,1.91162109375E-5,44,69,47,16747592,27554,14370,11498,9411,4097,4309,1571,Tag0,unknown
1500020289881,0,118,2.5927734375E-5,44,69,47,16747592,27554,14370,11498,9411,4097,4309,1571,Tag0,unknown
1500020289881,0,-124,-2.724609375E-5,44,69,47,16747592,27554,14370,11498,9411,4097,4309,1571,Tag0,unknown
1500020289882,0,120,2.63671875E-5,44,69,47,16747592,27554,14370,11498,9411,4097,4309,1571,Tag0,unknown
1500020289882,0,107,2.35107421875E-5,44,69,47,16747592,27554,14370,11498,9411,4097,4309,1571,Tag0,unknown
1500020289882,0,96,2.109375E-5,44,69,47,16747592,27554,14370,11498,9411,4097,4309,1571,Tag0,unknown
1500020289883,0,99,2.1752929687500003E-5,44,69,47,16747592,27554,14370,11498,9411,4097,4309,1571,Tag0,unknown
1500020289883,0,113,2.48291015625E-5,44,69,47,16747592,27554,14370,11498,9411,4097,4309,1571,Tag0,unknown
1500020289883,0,104,2.28515625E-5,44,69,47,16747592,27554,14370,11498,9411,4097,4309,1571,Tag0,unknown
1500020289923,0,91,1.99951171875E-5,44,69,47,16747592,27554,14370,11498,9411,4097,4309,1571,Tag0,unknown
1500020289925,0,91,1.99951171875E-5,44,69,47,16747592,27554,14370,11498,9411,4097,4309,1571,Tag0,unknown
1500020289925,0,104,2.28515625E-5,44,69,47,16747592,27554,14370,11498,9411,4097,4309,1571,Tag0,unknown
1500020289938,0,121,2.6586914062500003E-5,44,69,47,16747592,27554,14370,11498,9411,4097,4309,1571,Tag0,unknown
1500020289939,0,-116,-2.548828125E-5,44,69,47,16747592,27554,14370,11498,9411,4097,4309,1571,Tag0,unknown
1500020289940,0,-108,-2.3730468750000002E-5,44,69,47,16747592,27554,14370,11498,9411,4097,4309,1571,Tag0,unknown
1500020289943,0,-120,-2.63671875E-5,44,69,47,16747592,27554,14370,11498,9411,4097,4309,1571,Tag0,unknown
1500020289943,0,-118,-2.5927734375E-5,44,69,47,16747592,27554,14370,11498,9411,4097,4309,1571,Tag0,unknown
1500020289943,0,-107,-2.35107421875E-5,44,69,47,16747592,27554,14370,11498,9411,4097,4309,1571,Tag0,unknown
1500020289944,0,-105,-2.30712890625E-5,44,69,47,16747592,27554,14370,11498,9411,4097,4309,1571,Tag0,unknown
1500020289944,0,-108,-2.3730468750000002E-5,44,69,47,16747592,27554,14370,11498,9411,4097,4309,1571,Tag0,unknown
1500020289944,0,-118,-2.5927734375E-5,44,69,47,16747592,27554,14370,11498,9411,4097,4309,1571,Tag0,unknown
1500020289944,0,-126,-2.7685546875E-5,44,69,47,16747592,27554,14370,11498,9411,4097,4309,1571,Tag0,unknown
1500020289945,0,120,2.63671875E-5,44,69,47,16747592,27554,14370,11498,9411,4097,4309,1571,Tag0,unknown
1500020289945,0,118,2.5927734375E-5,44,69,47,16747592,27554,14370,11498,9411,4097,4309,1571,Tag0,unknown
1500020289946,0,120,2.63671875E-5,44,69,47,16747592,27554,14370,11498,9411,4097,4309,1571,Tag0,unknown
1500020289946,0,113,2.48291015625E-5,44,69,47,16747592,27554,14370,11498,9411,4097,4309,1571,Tag0,unknown
1500020289946,0,96,2.109375E-5,44,69,47,16747592,27554,14370,11498,9411,4097,4309,1571,Tag0,unknown
1500020289946,0,88,1.93359375E-5,44,69,47,16747592,27554,14370,11498,9411,4097,4309,1571,Tag0,unknown
1500020289947,0,102,2.2412109374999998E-5,44,69,47,16747592,27554,14370,11498,9411,4097,4309,1571,Tag0,unknown
1500020289947,0,117,2.5708007812499998E-5,44,69,47,16747592,27554,14370,11498,9411,4097,4309,1571,Tag0,unknown
1500020289947,0,114,2.5048828125000003E-5,44,69,47,16747592,27554,14370,11498,9411,4097,4309,1571,Tag0,unknown
1500020289948,0,104,2.28515625E-5,44,69,47,16747592,27554,14370,11498,9411,4097,4309,1571,Tag0,unknown
1500020289948,0,102,2.2412109374999998E-5,44,69,47,16747592,27554,14370,11498,9411,4097,4309,1571,Tag0,unknown
1500020289948,0,114,2.5048828125000003E-5,44,69,47,16747592,27554,14370,11498,9411,4097,4309,1571,Tag0,unknown
1500020289949,0,-128,-2.8125E-5,44,69,47,16747592,27554,14370,11498,9411,4097,4309,1571,Tag0,unknown
1500020289949,0,-121,-2.6586914062500003E-5,44,69,47,16747592,27554,14370,11498,9411,4097,4309,1571,Tag0,unknown
1500020289949,0,-119,-2.6147460937500004E-5,44,69,47,16747592,27554,14370,11498,9411,4097,4309,1571,Tag0,unknown
1500020289949,0,-124,-2.724609375E-5,44,69,47,16747592,27554,14370,11498,9411,4097,4309,1571,Tag0,unknown
1500020289950,0,121,2.6586914062500003E-5,44,69,47,16747592,27554,14370,11498,9411,4097,4309,1571,Tag0,unknown
1500020289952,0,115,2.52685546875E-5,44,69,47,16747592,27554,14370,11498,9411,4097,4309,1571,Tag0,unknown
1500020289953,0,101,2.2192382812500002E-5,44,69,47,16747592,27554,14370,11498,9411,4097,4309,1571,Tag0,unknown
1500020289954,0,90,1.9775390625E-5,44,69,47,16747592,27554,14370,11498,9411,4097,4309,1571,Tag0,unknown
1500020289954,0,91,1.99951171875E-5,44,69,47,16747592,27554,14370,11498,9411,4097,4309,1571,Tag0,unknown
1500020289955,0,99,2.1752929687500003E-5,44,69,47,16747592,27554,14370,11498,9411,4097,4309,1571,Tag0,unknown
1500020289955,0,119,2.6147460937500004E-5,44,69,47,16747592,27554,14370,11498,9411,4097,4309,1571,Tag0,unknown
1500020289956,0,-127,-2.79052734375E-5,44,69,47,16747592,27554,14370,11498,9411,4097,4309,1571,Tag0,unknown
1500020289957,0,104,2.28515625E-5,44,69,47,16747592,27554,14370,11498,9411,4097,4309,1571,Tag0,unknown
1500020289957,0,73,1.6040039062500002E-5,44,69,47,16747592,27554,14370,11498,9411,4097,4309,1571,Tag0,unknown
1500020289958,0,61,1.34033203125E-5,44,69,47,16747592,27554,14370,11498,9411,4097,4309,1571,Tag0,unknown
1500020289990,0,56,1.23046875E-5,44,69,47,16747592,27554,14370,11498,9411,4097,4309,1571,Tag0,unknown
1500020290006,0,29,6.3720703125E-6,44,69,47,16747592,27554,14370,11498,9411,4097,4309,1571,Tag0,unknown
1500020290006,0,-277,-6.0864257812500005E-5,44,69,47,16747592,27554,14370,11498,9411,4097,4309,1571,Tag0,unknown
1500020290007,0,-332,-7.294921875E-5,44,69,47,16747592,27554,14370,11498,9411,4097,4309,1571,Tag0,unknown
1500020290007,0,-380,-8.349609375E-5,44,69,47,16747592,27554,14370,11498,9411,4097,4309,1571,Tag0,unknown
1500020290008,0,-156,-3.427734375E-5,44,69,47,16747592,27554,14370,11498,9411,4097,4309,1571,Tag0,unknown
1500020290008,0,-188,-4.1308593750000004E-5,44,69,47,16747592,27554,14370,11498,9411,4097,4309,1571,Tag0,unknown
1500020290009,0,-227,-4.98779296875E-5,44,69,47,16747592,27554,14370,11498,9411,4097,4309,1571,Tag0,unknown
1500020290009,0,-243,-5.33935546875E-5,44,69,47,16747592,27554,14370,11498,9411,4097,4309,1571,Tag0,unknown
1500020290010,0,-236,-5.185546875E-5,44,69,47,16747592,27554,14370,11498,9411,4097,4309,1571,Tag0,unknown
1500020290010,0,-220,-4.833984375E-5,44,69,47,16747592,27554,14370,11498,9411,4097,4309,1571,Tag0,unknown
1500020290011,0,-200,-4.39453125E-5,44,69,47,16747592,27554,14370,11498,9411,4097,4309,1571,Tag0,unknown
1500020290011,0,-194,-4.2626953125E-5,44,69,47,16747592,27554,14370,11498,9411,4097,4309,1571,Tag0,unknown
1500020290012,0,-194,-4.2626953125E-5,44,69,47,16747592,27554,14370,11498,9411,4097,4309,1571,Tag0,unknown
1500020290012,0,-180,-3.955078125E-5,44,69,47,16747592,27554,14370,11498,9411,4097,4309,1571,Tag0,unknown
1500020290013,0,-153,-3.3618164062500004E-5,44,69,47,16747592,27554,14370,11498,9411,4097,4309,1571,Tag0,unknown
1500020290014,0,-146,-3.2080078125000004E-5,44,69,47,16747592,27554,14370,11498,9411,4097,4309,1571,Tag0,unknown
1500020290014,0,-146,-3.2080078125000004E-5,44,69,47,16747592,27554,14370,11498,9411,4097,4309,1571,Tag0,unknown
1500020290014,0,-132,-2.900390625E-5,44,69,47,16747592,27554,14370,11498,9411,4097,4309,1571,Tag0,unknown
1500020290015,0,-362,-7.954101562500001E-5,44,69,47,16747592,27554,14370,11498,9411,4097,4309,1571,Tag0,unknown
1500020290016,0,-345,-7.58056640625E-5,44,69,47,16747592,27554,14370,11498,9411,4097,4309,1571,Tag0,unknown
1500020290016,0,-340,-7.470703125E-5,44,69,47,16747592,27554,14370,11498,9411,4097,4309,1571,Tag0,unknown
1500020290016,0,-339,-7.448730468750001E-5,44,69,47,16747592,27554,14370,11498,9411,4097,4309,1571,Tag0,unknown
1500020290016,0,-334,-7.338867187500001E-5,44,69,47,16747592,27554,14370,11498,9411,4097,4309,1571,Tag0,unknown
1500020290017,0,-318,-6.9873046875E-5,44,69,47,16747592,27554,14370,11498,9411,4097,4309,1571,Tag0,unknown
1500020290017,0,-290,-6.3720703125E-5,44,69,47,16747592,27554,14370,11498,9411,4097,4309,1571,Tag0,unknown
1500020290018,0,-264,-5.80078125E-5,44,69,47,16747592,27554,14370,11498,9411,4097,4309,1571,Tag0,unknown
1500020290018,0,-264,-5.80078125E-5,44,69,47,16747592,27554,14370,11498,9411,4097,4309,1571,Tag0,unknown
1500020290018,0,-283,-6.218261718750001E-5,44,69,47,16747592,27554,14370,11498,9411,4097,4309,1571,Tag0,unknown
1500020290019,0,-286,-6.2841796875E-5,44,69,47,16747592,27554,14370,11498,9411,4097,4309,1571,Tag0,unknown
1500020290058,0,-280,-6.15234375E-5,44,69,47,16747592,27554,14370,11498,9411,4097,4309,1571,Tag0,unknown
1500020290077,0,-264,-5.80078125E-5,44,69,47,16747592,27554,14370,11498,9411,4097,4309,1571,Tag0,unknown
1500020290078,0,12,2.63671875E-6,44,69,47,16747592,27554,14370,11498,9411,4097,4309,1571,Tag0,unknown
1500020290078,0,24,5.2734375E-6,44,69,47,16747592,27554,14370,11498,9411,4097,4309,1571,Tag0,unknown
1500020290079,0,28,6.15234375E-6,44,69,47,16747592,27554,14370,11498,9411,4097,4309,1571,Tag0,unknown
1500020290080,0,40,8.7890625E-6,44,69,47,16747592,27554,14370,11498,9411,4097,4309,1571,Tag0,unknown
1500020290080,0,34,7.4707031250000005E-6,44,69,47,16747592,27554,14370,11498,9411,4097,4309,1571,Tag0,unknown
1500020290081,0,8,1.7578125E-6,44,69,47,16747592,27554,14370,11498,9411,4097,4309,1571,Tag0,unknown
1500020290082,0,18,3.955078125E-6,44,69,47,16747592,27554,14370,11498,9411,4097,4309,1571,Tag0,unknown
1500020290083,0,53,1.1645507812500002E-5,44,69,47,16747592,27554,14370,11498,9411,4097,4309,1571,Tag0,unknown
1500020290084,0,76,1.669921875E-5,44,69,47,16747592,27554,14370,11498,9411,4097,4309,1571,Tag0,unknown
1500020290085,0,88,1.93359375E-5,44,69,47,16747592,27554,14370,11498,9411,4097,4309,1571,Tag0,unknown
1500020290085,0,86,1.8896484375000003E-5,44,69,47,16747592,27554,14370,11498,9411,4097,4309,1571,Tag0,unknown
1500020290086,0,82,1.8017578124999998E-5,44,69,47,16747592,27554,14370,11498,9411,4097,4309,1571,Tag0,unknown
1500020290086,0,92,2.021484375E-5,44,69,47,16747592,27554,14370,11498,9411,4097,4309,1571,Tag0,unknown
1500020290087,0,114,2.5048828125000003E-5,44,69,47,16747592,27554,14370,11498,9411,4097,4309,1571,Tag0,unknown
1500020290088,0,119,2.6147460937500004E-5,44,69,47,16747592,27554,14370,11498,9411,4097,4309,1571,Tag0,unknown
1500020290089,0,98,2.1533203125E-5,44,69,47,16747592,27554,14370,11498,9411,4097,4309,1571,Tag0,unknown
1500020290089,0,82,1.8017578124999998E-5,44,69,47,16747592,27554,14370,11498,9411,4097,4309,1571,Tag0,unknown
1500020290090,0,91,1.99951171875E-5,44,69,47,16747592,27554,14370,11498,9411,4097,4309,1571,Tag0,unknown
1500020290090,0,108,2.3730468750000002E-5,44,69,47,16747592,27554,14370,11498,9411,4097,4309,1571,Tag0,unknown
1500020290091,0,123,2.70263671875E-5,44,69,47,16747592,27554,14370,11498,9411,4097,4309,1571,Tag0,unknown
1500020290091,0,120,2.63671875E-5,44,69,47,16747592,27554,14370,11498,9411,4097,4309,1571,Tag0,unknown
1500020290092,0,114,2.5048828125000003E-5,44,69,47,16747592,27554,14370,11498,9411,4097,4309,1571,Tag0,unknown
1500020290092,0,121,2.6586914062500003E-5,44,69,47,16747592,27554,14370,11498,9411,4097,4309,1571,Tag0,unknown
1500020290092,0,-116,-2.548828125E-5,44,69,47,16747592,27554,14370,11498,9411,4097,4309,1571,Tag0,unknown
1500020290093,0,-101,-2.2192382812500002E-5,44,69,47,16747592,27554,14370,11498,9411,4097,4309,1571,Tag0,unknown
1500020290093,0,-104,-2.28515625E-5,44,69,47,16747592,27554,14370,11498,9411,4097,4309,1571,Tag0,unknown
1500020290094,0,-119,-2.6147460937500004E-5,44,69,47,16747592,27554,14370,11498,9411,4097,4309,1571,Tag0,unknown
1500020290094,0,-117,-2.5708007812499998E-5,44,69,47,16747592,27554,14370,11498,9411,4097,4309,1571,Tag0,unknown
1500020290094,0,-109,-2.39501953125E-5,44,69,47,16747592,27554,14370,11498,9411,4097,4309,1571,Tag0,unknown
1500020290095,0,-109,-2.39501953125E-5,44,69,47,16747592,27554,14370,11498,9411,4097,4309,1571,Tag0,unknown
1500020290095,0,-109,-2.39501953125E-5,44,69,47,16747592,27554,14370,11498,9411,4097,4309,1571,Tag0,unknown
1500020290095,0,-109,-2.39501953125E-5,44,69,47,16747592,27554,14370,11498,9411,4097,4309,1571,Tag0,unknown
1500020290096,0,-111,-2.43896484375E-5,44,69,47,16747592,27554,14370,11498,9411,4097,4309,1571,Tag0,unknown
1500020290096,0,-111,-2.43896484375E-5,44,69,47,16747592,27554,14370,11498,9411,4097,4309,1571,Tag0,unknown
1500020290097,0,-105,-2.30712890625E-5,44,69,47,16747592,27554,14370,11498,9411,4097,4309,1571,Tag0,unknown
1500020290097,0,-105,-2.30712890625E-5,44,69,47,16747592,27554,14370,11498,9411,4097,4309,1571,Tag0,unknown
1500020290102,0,124,2.724609375E-5,44,69,47,16747592,27554,14370,11498,9411,4097,4309,1571,Tag0,unknown
1500020290102,0,115,2.52685546875E-5,44,69,47,16747592,27554,14370,11498,9411,4097,4309,1571,Tag0,unknown
1500020290124,0,-124,-2.724609375E-5,44,69,47,16747592,27554,14370,11498,9411,4097,4309,1571,Tag0,unknown
1500020290142,0,-112,-2.4609375E-5,44,69,47,16747592,27554,14370,11498,9411,4097,4309,1571,Tag0,unknown
1500020290142,0,-118,-2.5927734375E-5,44,69,47,16747592,27554,14370,11498,9411,4097,4309,1571,Tag0,unknown
1500020290143,0,-117,-2.5708007812499998E-5,44,69,47,16747592,27554,14370,11498,9411,4097,4309,1571,Tag0,unknown
1500020290144,0,-123,-2.70263671875E-5,44,69,47,16747592,27554,14370,11498,9411,4097,4309,1571,Tag0,unknown
1500020290144,0,124,2.724609375E-5,44,69,47,16747592,27554,14370,11498,9411,4097,4309,1571,Tag0,unknown
1500020290145,0,-124,-2.724609375E-5,44,69,47,16747592,27554,14370,11498,9411,4097,4309,1571,Tag0,unknown
1500020290145,0,-118,-2.5927734375E-5,44,69,47,16747592,27554,14370,11498,9411,4097,4309,1571,Tag0,unknown
1500020290146,0,121,2.6586914062500003E-5,44,69,47,16747592,27554,14370,11498,9411,4097,4309,1571,Tag0,unknown
1500020290147,0,105,2.30712890625E-5,44,69,47,16747592,27554,14370,11498,9411,4097,4309,1571,Tag0,unknown
1500020290147,0,-123,-2.70263671875E-5,44,69,47,16747592,27554,14370,11498,9411,4097,4309,1571,Tag0,unknown
1500020290148,0,-74,-1.6259765625E-5,44,69,47,16747592,27554,14370,11498,9411,4097,4309,1571,Tag0,unknown
1500020290148,0,-54,-1.1865234375000001E-5,44,69,47,16747592,27554,14370,11498,9411,4097,4309,1571,Tag0,unknown
1500020290148,0,-77,-1.69189453125E-5,44,69,47,16747592,27554,14370,11498,9411,4097,4309,1571,Tag0,unknown
1500020290149,0,-109,-2.39501953125E-5,44,69,47,16747592,27554,14370,11498,9411,4097,4309,1571,Tag0,unknown
1500020290149,0,-115,-2.52685546875E-5,44,69,47,16747592,27554,14370,11498,9411,4097,4309,1571,Tag0,unknown
1500020290149,0,-95,-2.08740234375E-5,44,69,47,16747592,27554,14370,11498,9411,4097,4309,1571,Tag0,unknown
1500020290149,0,-88,-1.93359375E-5,44,69,47,16747592,27554,14370,11498,9411,4097,4309,1571,Tag0,unknown
1500020290150,0,-107,-2.35107421875E-5,44,69,47,16747592,27554,14370,11498,9411,4097,4309,1571,Tag0,unknown
1500020290150,0,119,2.6147460937500004E-5,44,69,47,16747592,27554,14370,11498,9411,4097,4309,1571,Tag0,unknown
1500020290151,0,101,2.2192382812500002E-5,44,69,47,16747592,27554,14370,11498,9411,4097,4309,1571,Tag0,unknown
1500020290151,0,101,2.2192382812500002E-5,44,69,47,16747592,27554,14370,11498,9411,4097,4309,1571,Tag0,unknown
1500020290152,0,107,2.35107421875E-5,44,69,47,16747592,27554,14370,11498,9411,4097,4309,1571,Tag0,unknown
1500020290152,0,113,2.48291015625E-5,44,69,47,16747592,27554,14370,11498,9411,4097,4309,1571,Tag0,unknown
1500020290152,0,113,2.48291015625E-5,44,69,47,16747592,27554,14370,11498,9411,4097,4309,1571,Tag0,unknown
1500020290153,0,120,2.63671875E-5,44,69,47,16747592,27554,14370,11498,9411,4097,4309,1571,Tag0,unknown
1500020290153,0,124,2.724609375E-5,44,69,47,16747592,27554,14370,11498,9411,4097,4309,1571,Tag0,unknown
1500020290153,0,121,2.6586914062500003E-5,44,69,47,16747592,27554,14370,11498,9411,4097,4309,1571,Tag0,unknown
1500020290153,0,101,2.2192382812500002E-5,44,69,47,16747592,27554,14370,11498,9411,4097,4309,1571,Tag0,unknown
1500020290154,0,81,1.77978515625E-5,44,69,47,16747592,27554,14370,11498,9411,4097,4309,1571,Tag0,unknown
1500020290193,0,90,1.9775390625E-5,44,69,47,16747592,27554,14370,11498,9411,4097,4309,1571,Tag0,unknown
1500020290210,0,118,2.5927734375E-5,44,69,47,16747592,27554,14370,11498,9411,4097,4309,1571,Tag0,unknown
1500020290211,0,-117,-2.5708007812499998E-5,44,69,47,16747592,27554,14370,11498,9411,4097,4309,1571,Tag0,unknown
1500020290211,0,-118,-2.5927734375E-5,44,69,47,16747592,27554,14370,11498,9411,4097,4309,1571,Tag0,unknown
1500020290212,0,124,2.724609375E-5,44,69,47,16747592,27554,14370,11498,9411,4097,4309,1571,Tag0,unknown
1500020290213,0,117,2.5708007812499998E-5,44,69,47,16747592,27554,14370,11498,9411,4097,4309,1571,Tag0,unknown
1500020290213,0,122,2.6806640625E-5,44,69,47,16747592,27554,14370,11498,9411,4097,4309,1571,Tag0,unknown
1500020290214,0,-118,-2.5927734375E-5,44,69,47,16747592,27554,14370,11498,9411,4097,4309,1571,Tag0,unknown
1500020290214,0,-112,-2.4609375E-5,44,69,47,16747592,27554,14370,11498,9411,4097,4309,1571,Tag0,unknown
1500020290214,0,-118,-2.5927734375E-5,44,69,47,16747592,27554,14370,11498,9411,4097,4309,1571,Tag0,unknown
1500020290215,0,-118,-2.5927734375E-5,44,69,47,16747592,27554,14370,11498,9411,4097,4309,1571,Tag0,unknown
1500020290215,0,-106,-2.3291015625000003E-5,44,69,47,16747592,27554,14370,11498,9411,4097,4309,1571,Tag0,unknown
1500020290216,0,-100,-2.197265625E-5,44,69,47,16747592,27554,14370,11498,9411,4097,4309,1571,Tag0,unknown
1500020290216,0,-100,-2.197265625E-5,44,69,47,16747592,27554,14370,11498,9411,4097,4309,1571,Tag0,unknown
1500020290217,0,-106,-2.3291015625000003E-5,44,69,47,16747592,27554,14370,11498,9411,4097,4309,1571,Tag0,unknown
1500020290217,0,-117,-2.5708007812499998E-5,44,69,47,16747592,27554,14370,11498,9411,4097,4309,1571,Tag0,unknown
1500020290218,0,-120,-2.63671875E-5,44,69,47,16747592,27554,14370,11498,9411,4097,4309,1571,Tag0,unknown
1500020290218,0,-119,-2.6147460937500004E-5,44,69,47,16747592,27554,14370,11498,9411,4097,4309,1571,Tag0,unknown
1500020290218,0,-111,-2.43896484375E-5,44,69,47,16747592,27554,14370,11498,9411,4097,4309,1571,Tag0,unknown
1500020290219,0,-116,-2.548828125E-5,44,69,47,16747592,27554,14370,11498,9411,4097,4309,1571,Tag0,unknown
1500020290219,0,-125,-2.74658203125E-5,44,69,47,16747592,27554,14370,11498,9411,4097,4309,1571,Tag0,unknown
1500020290219,0,117,2.5708007812499998E-5,44,69,47,16747592,27554,14370,11498,9411,4097,4309,1571,Tag0,unknown
1500020290220,0,105,2.30712890625E-5,44,69,47,16747592,27554,14370,11498,9411,4097,4309,1571,Tag0,unknown
1500020290220,0,92,2.021484375E-5,44,69,47,16747592,27554,14370,11498,9411,4097,4309,1571,Tag0,unknown
1500020290220,0,88,1.93359375E-5,44,69,47,16747592,27554,14370,11498,9411,4097,4309,1571,Tag0,unknown
1500020290221,0,92,2.021484375E-5,44,69,47,16747592,27554,14370,11498,9411,4097,4309,1571,Tag0,unknown
1500020290221,0,105,2.30712890625E-5,44,69,47,16747592,27554,14370,11498,9411,4097,4309,1571,Tag0,unknown
1500020290222,0,124,2.724609375E-5,44,69,47,16747592,27554,14370,11498,9411,4097,4309,1571,Tag0,unknown
1500020290223,0,-124,-2.724609375E-5,44,69,47,16747592,27554,14370,11498,9411,4097,4309,1571,Tag0,unknown
1500020290223,0,115,2.52685546875E-5,44,69,47,16747592,27554,14370,11498,9411,4097,4309,1571,Tag0,unknown
1500020290224,0,97,2.13134765625E-5,44,69,47,16747592,27554,14370,11498,9411,4097,4309,1571,Tag0,unknown
1500020290224,0,100,2.197265625E-5,44,69,47,16747592,27554,14370,11498,9411,4097,4309,1571,Tag0,unknown
1500020290224,0,114,2.5048828125000003E-5,44,69,47,16747592,27554,14370,11498,9411,4097,4309,1571,Tag0,unknown
1500020290225,0,119,2.6147460937500004E-5,44,69,47,16747592,27554,14370,11498,9411,4097,4309,1571,Tag0,unknown
1500020290225,0,118,2.5927734375E-5,44,69,47,16747592,27554,14370,11498,9411,4097,4309,1571,Tag0,unknown
1500020290226,0,115,2.52685546875E-5,44,69,47,16747592,27554,14370,11498,9411,4097,4309,1571,Tag0,unknown
1500020290226,0,118,2.5927734375E-5,44,69,47,16747592,27554,14370,11498,9411,4097,4309,1571,Tag0,unknown
1500020290226,0,123,2.70263671875E-5,44,69,47,16747592,27554,14370,11498,9411,4097,4309,1571,Tag0,unknown
1500020290226,0,122,2.6806640625E-5,44,69,47,16747592,27554,14370,11498,9411,4097,4309,1571,Tag0,unknown
1500020290227,0,114,2.5048828125000003E-5,44,69,47,16747592,27554,14370,11498,9411,4097,4309,1571,Tag0,unknown
1500020290255,0,86,1.8896484375000003E-5,44,69,47,16747592,27554,14370,11498,9411,4097,4309,1571,Tag0,unknown
1500020290275,0,77,1.69189453125E-5,44,69,47,16747592,27554,14370,11498,9411,4097,4309,1571,Tag0,unknown
1500020290276,0,92,2.021484375E-5,44,69,47,16747592,27554,14370,11498,9411,4097,4309,1571,Tag0,unknown
1500020290276,0,112,2.4609375E-5,44,69,47,16747592,27554,14370,11498,9411,4097,4309,1571,Tag0,unknown
1500020290277,0,119,2.6147460937500004E-5,44,69,47,16747592,27554,14370,11498,9411,4097,4309,1571,Tag0,unknown
1500020290277,0,116,2.548828125E-5,44,69,47,16747592,27554,14370,11498,9411,4097,4309,1571,Tag0,unknown
1500020290278,0,115,2.52685546875E-5,44,69,47,16747592,27554,14370,11498,9411,4097,4309,1571,Tag0,unknown
1500020290278,0,123,2.70263671875E-5,44,69,47,16747592,27554,14370,11498,9411,4097,4309,1571,Tag0,unknown
1500020290279,0,-122,-2.6806640625E-5,44,69,47,16747592,27554,14370,11498,9411,4097,4309,1571,Tag0,unknown
1500020290279,0,124,2.724609375E-5,44,69,47,16747592,27554,14370,11498,9411,4097,4309,1571,Tag0,unknown
1500020290280,0,105,2.30712890625E-5,44,69,47,16747592,27554,14370,11498,9411,4097,4309,1571,Tag0,unknown
1500020290280,0,85,1.86767578125E-5,44,69,47,16747592,27554,14370,11498,9411,4097,4309,1571,Tag0,unknown
1500020290280,0,80,1.7578125E-5,44,69,47,16747592,27554,14370,11498,9411,4097,4309,1571,Tag0,unknown
1500020290281,0,97,2.13134765625E-5,44,69,47,16747592,27554,14370,11498,9411,4097,4309,1571,Tag0,unknown
1500020290282,0,109,2.39501953125E-5,44,69,47,16747592,27554,14370,11498,9411,4097,4309,1571,Tag0,unknown
1500020290282,0,107,2.35107421875E-5,44,69,47,16747592,27554,14370,11498,9411,4097,4309,1571,Tag0,unknown
1500020290283,0,96,2.109375E-5,44,69,47,16747592,27554,14370,11498,9411,4097,4309,1571,Tag0,unknown
1500020290283,0,90,1.9775390625E-5,44,69,47,16747592,27554,14370,11498,9411,4097,4309,1571,Tag0,unknown
1500020290284,0,86,1.8896484375000003E-5,44,69,47,16747592,27554,14370,11498,9411,4097,4309,1571,Tag0,unknown
1500020290284,0,90,1.9775390625E-5,44,69,47,16747592,27554,14370,11498,9411,4097,4309,1571,Tag0,unknown
1500020290285,0,97,2.13134765625E-5,44,69,47,16747592,27554,14370,11498,9411,4097,4309,1571,Tag0,unknown
1500020290285,0,98,2.1533203125E-5,44,69,47,16747592,27554,14370,11498,9411,4097,4309,1571,Tag0,unknown
1500020290286,0,105,2.30712890625E-5,44,69,47,16747592,27554,14370,11498,9411,4097,4309,1571,Tag0,unknown
1500020290286,0,120,2.63671875E-5,44,69,47,16747592,27554,14370,11498,9411,4097,4309,1571,Tag0,unknown
1500020290286,0,120,2.63671875E-5,44,69,47,16747592,27554,14370,11498,9411,4097,4309,1571,Tag0,unknown
1500020290287,0,102,2.2412109374999998E-5,44,69,47,16747592,27554,14370,11498,9411,4097,4309,1571,Tag0,unknown
1500020290287,0,85,1.86767578125E-5,44,69,47,16747592,27554,14370,11498,9411,4097,4309,1571,Tag0,unknown
1500020290287,0,92,2.021484375E-5,44,69,47,16747592,27554,14370,11498,9411,4097,4309,1571,Tag0,unknown
1500020290288,0,102,2.2412109374999998E-5,44,69,47,16747592,27554,14370,11498,9411,4097,4309,1571,Tag0,unknown
1500020290288,0,113,2.48291015625E-5,44,69,47,16747592,27554,14370,11498,9411,4097,4309,1571,Tag0,unknown
1500020290321,0,106,2.3291015625000003E-5,44,69,47,16747592,27554,14370,11498,9411,4097,4309,1571,Tag0,unknown
1500020290328,0,98,2.1533203125E-5,44,69,47,16747592,27554,14370,11498,9411,4097,4309,1571,Tag0,unknown
1500020290328,0,96,2.109375E-5,44,69,47,16747592,27554,14370,11498,9411,4097,4309,1571,Tag0,unknown
1500020290329,0,106,2.3291015625000003E-5,44,69,47,16747592,27554,14370,11498,9411,4097,4309,1571,Tag0,unknown
1500020290330,0,116,2.548828125E-5,44,69,47,16747592,27554,14370,11498,9411,4097,4309,1571,Tag0,unknown
1500020290331,0,106,2.3291015625000003E-5,44,69,47,16747592,27554,14370,11498,9411,4097,4309,1571,Tag0,unknown
1500020290332,0,91,1.99951171875E-5,44,69,47,16747592,27554,14370,11498,9411,4097,4309,1571,Tag0,unknown
1500020290333,0,84,1.8457031250000004E-5,44,69,47,16747592,27554,14370,11498,9411,4097,4309,1571,Tag0,unknown
1500020290335,0,92,2.021484375E-5,44,69,47,16747592,27554,14370,11498,9411,4097,4309,1571,Tag0,unknown
1500020290337,0,98,2.1533203125E-5,44,69,47,16747592,27554,14370,11498,9411,4097,4309,1571,Tag0,unknown
1500020290338,0,83,1.82373046875E-5,44,69,47,16747592,27554,14370,11498,9411,4097,4309,1571,Tag0,unknown
1500020290339,0,60,1.318359375E-5,44,69,47,16747592,27554,14370,11498,9411,4097,4309,1571,Tag0,unknown
1500020290342,0,56,1.23046875E-5,44,69,47,16747592,27554,14370,11498,9411,4097,4309,1571,Tag0,unknown
1500020290343,0,59,1.29638671875E-5,44,69,47,16747592,27554,14370,11498,9411,4097,4309,1571,Tag0,unknown
1500020290344,0,56,1.23046875E-5,44,69,47,16747592,27554,14370,11498,9411,4097,4309,1571,Tag0,unknown
1500020290345,0,49,1.07666015625E-5,44,69,47,16747592,27554,14370,11498,9411,4097,4309,1571,Tag0,unknown
1500020290346,0,44,9.66796875E-6,44,69,47,16747592,27554,14370,11498,9411,4097,4309,1571,Tag0,unknown
1500020290346,0,48,1.0546875E-5,44,69,47,16747592,27554,14370,11498,9411,4097,4309,1571,Tag0,unknown
1500020290347,0,58,1.2744140625E-5,44,69,47,16747592,27554,14370,11498,9411,4097,4309,1571,Tag0,unknown
1500020290347,0,73,1.6040039062500002E-5,44,69,47,16747592,27554,14370,11498,9411,4097,4309,1571,Tag0,unknown
1500020290347,0,89,1.95556640625E-5,44,69,47,16747592,27554,14370,11498,9411,4097,4309,1571,Tag0,unknown
1500020290348,0,85,1.86767578125E-5,44,69,47,16747592,27554,14370,11498,9411,4097,4309,1571,Tag0,unknown
1500020290348,0,51,1.1206054687499999E-5,44,69,47,16747592,27554,14370,11498,9411,4097,4309,1571,Tag0,unknown
1500020290348,0,1,2.197265625E-7,44,69,47,16747592,27554,14370,11498,9411,4097,4309,1571,Tag0,unknown
1500020290354,0,-279,-6.13037109375E-5,44,69,47,16747592,27554,14370,11498,9411,4097,4309,1571,Tag0,unknown
1500020290355,0,-260,-5.712890625E-5,44,69,47,16747592,27554,14370,11498,9411,4097,4309,1571,Tag0,unknown
1500020290356,0,49,1.07666015625E-5,44,69,47,16747592,27554,14370,11498,9411,4097,4309,1571,Tag0,unknown
1500020290357,0,114,2.5048828125000003E-5,44,69,47,16747592,27554,14370,11498,9411,4097,4309,1571,Tag0,unknown
1500020290358,0,-108,-2.3730468750000002E-5,44,69,47,16747592,27554,14370,11498,9411,4097,4309,1571,Tag0,unknown
1500020290359,0,-104,-2.28515625E-5,44,69,47,16747592,27554,14370,11498,9411,4097,4309,1571,Tag0,unknown
1500020290392,0,-103,-2.26318359375E-5,44,69,47,16747592,27554,14370,11498,9411,4097,4309,1571,Tag0,unknown
1500020290393,0,-94,-2.0654296875000002E-5,44,69,47,16747592,27554,14370,11498,9411,4097,4309,1571,Tag0,unknown
1500020290394,0,-58,-1.2744140625E-5,44,69,47,16747592,27554,14370,11498,9411,4097,4309,1571,Tag0,unknown
1500020290412,0,-9,-1.9775390625E-6,44,69,47,16747592,27554,14370,11498,9411,4097,4309,1571,Tag0,unknown
1500020290413,0,273,5.998535156250001E-5,44,69,47,16747592,27554,14370,11498,9411,4097,4309,1571,Tag0,unknown
1500020290413,0,258,5.6689453125000004E-5,44,69,47,16747592,27554,14370,11498,9411,4097,4309,1571,Tag0,unknown
1500020290414,0,-16,-3.515625E-6,44,69,47,16747592,27554,14370,11498,9411,4097,4309,1571,Tag0,unknown
1500020290415,0,-12,-2.63671875E-6,44,69,47,16747592,27554,14370,11498,9411,4097,4309,1571,Tag0,unknown
1500020290416,0,256,5.625E-5,44,69,47,16747592,27554,14370,11498,9411,4097,4309,1571,Tag0,unknown
1500020290416,0,272,5.9765625000000004E-5,44,69,47,16747592,27554,14370,11498,9411,4097,4309,1571,Tag0,unknown
1500020290417,0,266,5.8447265625E-5,44,69,47,16747592,27554,14370,11498,9411,4097,4309,1571,Tag0,unknown
1500020290418,0,-11,-2.4169921875E-6,44,69,47,16747592,27554,14370,11498,9411,4097,4309,1571,Tag0,unknown
1500020290419,0,-22,-4.833984375E-6,44,69,47,16747592,27554,14370,11498,9411,4097,4309,1571,Tag0,unknown
1500020290419,0,257,5.64697265625E-5,44,69,47,16747592,27554,14370,11498,9411,4097,4309,1571,Tag0,unknown
1500020290420,0,282,6.1962890625E-5,44,69,47,16747592,27554,14370,11498,9411,4097,4309,1571,Tag0,unknown
1500020290421,0,283,6.218261718750001E-5,44,69,47,16747592,27554,14370,11498,9411,4097,4309,1571,Tag0,unknown
1500020290421,0,264,5.80078125E-5,44,69,47,16747592,27554,14370,11498,9411,4097,4309,1571,Tag0,unknown
1500020290422,0,-22,-4.833984375E-6,44,69,47,16747592,27554,14370,11498,9411,4097,4309,1571,Tag0,unknown
1500020290423,0,-52,-1.142578125E-5,44,69,47,16747592,27554,14370,11498,9411,4097,4309,1571,Tag0,unknown
1500020290423,0,-73,-1.6040039062500002E-5,44,69,47,16747592,27554,14370,11498,9411,4097,4309,1571,Tag0,unknown
1500020290424,0,-87,-1.91162109375E-5,44,69,47,16747592,27554,14370,11498,9411,4097,4309,1571,Tag0,unknown
1500020290425,0,-94,-2.0654296875000002E-5,44,69,47,16747592,27554,14370,11498,9411,4097,4309,1571,Tag0,unknown
1500020290425,0,-107,-2.35107421875E-5,44,69,47,16747592,27554,14370,11498,9411,4097,4309,1571,Tag0,unknown
1500020290426,0,-112,-2.4609375E-5,44,69,47,16747592,27554,14370,11498,9411,4097,4309,1571,Tag0,unknown
1500020290426,0,-111,-2.43896484375E-5,44,69,47,16747592,27554,14370,11498,9411,4097,4309,1571,Tag0,unknown
1500020290427,0,-118,-2.5927734375E-5,44,69,47,16747592,27554,14370,11498,9411,4097,4309,1571,Tag0,unknown
1500020290427,0,-125,-2.74658203125E-5,44,69,47,16747592,27554,14370,11498,9411,4097,4309,1571,Tag0,unknown
1500020290427,0,112,2.4609375E-5,44,69,47,16747592,27554,14370,11498,9411,4097,4309,1571,Tag0,unknown
1500020290428,0,91,1.99951171875E-5,44,69,47,16747592,27554,14370,11498,9411,4097,4309,1571,Tag0,unknown
1500020290428,0,72,1.58203125E-5,44,69,47,16747592,27554,14370,11498,9411,4097,4309,1571,Tag0,unknown
1500020290428,0,71,1.56005859375E-5,44,69,47,16747592,27554,14370,11498,9411,4097,4309,1571,Tag0,unknown
1500020290428,0,75,1.64794921875E-5,44,69,47,16747592,27554,14370,11498,9411,4097,4309,1571,Tag0,unknown
1500020290429,0,60,1.318359375E-5,44,69,47,16747592,27554,14370,11498,9411,4097,4309,1571,Tag0,unknown
1500020290429,0,57,1.2524414062500001E-5,44,69,47,16747592,27554,14370,11498,9411,4097,4309,1571,Tag0,unknown
1500020290429,0,76,1.669921875E-5,44,69,47,16747592,27554,14370,11498,9411,4097,4309,1571,Tag0,unknown
1500020290429,0,87,1.91162109375E-5,44,69,47,16747592,27554,14370,11498,9411,4097,4309,1571,Tag0,unknown
1500020290430,0,80,1.7578125E-5,44,69,47,16747592,27554,14370,11498,9411,4097,4309,1571,Tag0,unknown
1500020290430,0,69,1.51611328125E-5,44,69,47,16747592,27554,14370,11498,9411,4097,4309,1571,Tag0,unknown
1500020290430,0,59,1.29638671875E-5,44,69,47,16747592,27554,14370,11498,9411,4097,4309,1571,Tag0,unknown
1500020290489,0,51,1.1206054687499999E-5,63,66,47,177066,25977,5280,9566,11483,5450,951,409,Tag0,unknown
1500020290490,0,50,1.0986328125E-5,63,66,47,177066,25977,5280,9566,11483,5450,951,409,Tag0,unknown
1500020290491,0,56,1.23046875E-5,63,66,47,177066,25977,5280,9566,11483,5450,951,409,Tag0,unknown
1500020290492,0,58,1.2744140625E-5,63,66,47,177066,25977,5280,9566,11483,5450,951,409,Tag0,unknown
1500020290493,0,36,7.91015625E-6,63,66,47,177066,25977,5280,9566,11483,5450,951,409,Tag0,unknown
1500020290494,0,21,4.614257812500001E-6,63,66,47,177066,25977,5280,9566,11483,5450,951,409,Tag0,unknown
1500020290494,0,25,5.4931640625E-6,63,66,47,177066,25977,5280,9566,11483,5450,951,409,Tag0,unknown
1500020290495,0,23,5.0537109375E-6,63,66,47,177066,25977,5280,9566,11483,5450,951,409,Tag0,unknown
1500020290496,0,11,2.4169921875E-6,63,66,47,177066,25977,5280,9566,11483,5450,951,409,Tag0,unknown
1500020290496,0,-261,-5.73486328125E-5,63,66,47,177066,25977,5280,9566,11483,5450,951,409,Tag0,unknown
1500020290497,0,-261,-5.73486328125E-5,63,66,47,177066,25977,5280,9566,11483,5450,951,409,Tag0,unknown
1500020290497,0,9,1.9775390625E-6,63,66,47,177066,25977,5280,9566,11483,5450,951,409,Tag0,unknown
1500020290497,0,33,7.2509765625E-6,63,66,47,177066,25977,5280,9566,11483,5450,951,409,Tag0,unknown
1500020290498,0,53,1.1645507812500002E-5,63,66,47,177066,25977,5280,9566,11483,5450,951,409,Tag0,unknown
1500020290499,0,55,1.20849609375E-5,63,66,47,177066,25977,5280,9566,11483,5450,951,409,Tag0,unknown
1500020290500,0,50,1.0986328125E-5,63,66,47,177066,25977,5280,9566,11483,5450,951,409,Tag0,unknown
1500020290500,0,50,1.0986328125E-5,63,66,47,177066,25977,5280,9566,11483,5450,951,409,Tag0,unknown
1500020290501,0,56,1.23046875E-5,63,66,47,177066,25977,5280,9566,11483,5450,951,409,Tag0,unknown
1500020290502,0,59,1.29638671875E-5,63,66,47,177066,25977,5280,9566,11483,5450,951,409,Tag0,unknown
1500020290503,0,51,1.1206054687499999E-5,63,66,47,177066,25977,5280,9566,11483,5450,951,409,Tag0,unknown
1500020290503,0,35,7.6904296875E-6,63,66,47,177066,25977,5280,9566,11483,5450,951,409,Tag0,unknown
1500020290504,0,22,4.833984375E-6,63,66,47,177066,25977,5280,9566,11483,5450,951,409,Tag0,unknown
1500020290504,0,18,3.955078125E-6,63,66,47,177066,25977,5280,9566,11483,5450,951,409,Tag0,unknown
1500020290504,0,10,2.197265625E-6,63,66,47,177066,25977,5280,9566,11483,5450,951,409,Tag0,unknown
1500020290505,0,1,2.197265625E-7,63,66,47,177066,25977,5280,9566,11483,5450,951,409,Tag0,unknown
1500020290505,0,-259,-5.69091796875E-5,63,66,47,177066,25977,5280,9566,11483,5450,951,409,Tag0,unknown
1500020290506,0,8,1.7578125E-6,63,66,47,177066,25977,5280,9566,11483,5450,951,409,Tag0,unknown
1500020290506,0,23,5.0537109375E-6,63,66,47,177066,25977,5280,9566,11483,5450,951,409,Tag0,unknown
1500020290506,0,27,5.9326171875000005E-6,63,66,47,177066,25977,5280,9566,11483,5450,951,409,Tag0,unknown
1500020290507,0,25,5.4931640625E-6,63,66,47,177066,25977,5280,9566,11483,5450,951,409,Tag0,unknown
1500020290507,0,26,5.712890625E-6,63,66,47,177066,25977,5280,9566,11483,5450,951,409,Tag0,unknown
1500020290507,0,36,7.91015625E-6,63,66,47,177066,25977,5280,9566,11483,5450,951,409,Tag0,unknown
1500020290508,0,53,1.1645507812500002E-5,63,66,47,177066,25977,5280,9566,11483,5450,951,409,Tag0,unknown
1500020290509,0,56,1.23046875E-5,63,66,47,177066,25977,5280,9566,11483,5450,951,409,Tag0,unknown
1500020290510,0,48,1.0546875E-5,63,66,47,177066,25977,5280,9566,11483,5450,951,409,Tag0,unknown
1500020290511,0,41,9.008789062499999E-6,63,66,47,177066,25977,5280,9566,11483,5450,951,409,Tag0,unknown
1500020290512,0,48,1.0546875E-5,63,66,47,177066,25977,5280,9566,11483,5450,951,409,Tag0,unknown
1500020290532,0,56,1.23046875E-5,63,66,47,177066,25977,5280,9566,11483,5450,951,409,Tag0,unknown
1500020290546,0,50,1.0986328125E-5,63,66,47,177066,25977,5280,9566,11483,5450,951,409,Tag0,unknown
1500020290547,0,35,7.6904296875E-6,63,66,47,177066,25977,5280,9566,11483,5450,951,409,Tag0,unknown
1500020290547,0,33,7.2509765625E-6,63,66,47,177066,25977,5280,9566,11483,5450,951,409,Tag0,unknown
1500020290548,0,40,8.7890625E-6,63,66,47,177066,25977,5280,9566,11483,5450,951,409,Tag0,unknown
1500020290549,0,43,9.448242187500001E-6,63,66,47,177066,25977,5280,9566,11483,5450,951,409,Tag0,unknown
1500020290550,0,50,1.0986328125E-5,63,66,47,177066,25977,5280,9566,11483,5450,951,409,Tag0,unknown
1500020290550,0,44,9.66796875E-6,63,66,47,177066,25977,5280,9566,11483,5450,951,409,Tag0,unknown
1500020290551,0,38,8.349609375E-6,63,66,47,177066,25977,5280,9566,11483,5450,951,409,Tag0,unknown
1500020290552,0,34,7.4707031250000005E-6,63,66,47,177066,25977,5280,9566,11483,5450,951,409,Tag0,unknown
1500020290553,0,27,5.9326171875000005E-6,63,66,47,177066,25977,5280,9566,11483,5450,951,409,Tag0,unknown
1500020290554,0,22,4.833984375E-6,63,66,47,177066,25977,5280,9566,11483,5450,951,409,Tag0,unknown
1500020290554,0,10,2.197265625E-6,63,66,47,177066,25977,5280,9566,11483,5450,951,409,Tag0,unknown
1500020290554,0,12,2.63671875E-6,63,66,47,177066,25977,5280,9566,11483,5450,951,409,Tag0,unknown
1500020290555,0,28,6.15234375E-6,63,66,47,177066,25977,5280,9566,11483,5450,951,409,Tag0,unknown
1500020290556,0,41,9.008789062499999E-6,63,66,47,177066,25977,5280,9566,11483,5450,951,409,Tag0,unknown
1500020290556,0,43,9.448242187500001E-6,63,66,47,177066,25977,5280,9566,11483,5450,951,409,Tag0,unknown
1500020290557,0,38,8.349609375E-6,63,66,47,177066,25977,5280,9566,11483,5450,951,409,Tag0,unknown
1500020290557,0,25,5.4931640625E-6,63,66,47,177066,25977,5280,9566,11483,5450,951,409,Tag0,unknown
1500020290558,0,26,5.712890625E-6,63,66,47,177066,25977,5280,9566,11483,5450,951,409,Tag0,unknown
1500020290558,0,49,1.07666015625E-5,63,66,47,177066,25977,5280,9566,11483,5450,951,409,Tag0,unknown
1500020290559,0,68,1.4941406250000001E-5,63,66,47,177066,25977,5280,9566,11483,5450,951,409,Tag0,unknown
1500020290560,0,69,1.51611328125E-5,63,66,47,177066,25977,5280,9566,11483,5450,951,409,Tag0,unknown
1500020290561,0,58,1.2744140625E-5,63,66,47,177066,25977,5280,9566,11483,5450,951,409,Tag0,unknown
1500020290561,0,59,1.29638671875E-5,63,66,47,177066,25977,5280,9566,11483,5450,951,409,Tag0,unknown
1500020290562,0,70,1.5380859375E-5,63,66,47,177066,25977,5280,9566,11483,5450,951,409,Tag0,unknown
1500020290562,0,84,1.8457031250000004E-5,63,66,47,177066,25977,5280,9566,11483,5450,951,409,Tag0,unknown
1500020290563,0,74,1.6259765625E-5,63,66,47,177066,25977,5280,9566,11483,5450,951,409,Tag0,unknown
1500020290563,0,41,9.008789062499999E-6,63,66,47,177066,25977,5280,9566,11483,5450,951,409,Tag0,unknown
1500020290563,0,8,1.7578125E-6,63,66,47,177066,25977,5280,9566,11483,5450,951,409,Tag0,unknown
1500020290564,0,-282,-6.1962890625E-5,63,66,47,177066,25977,5280,9566,11483,5450,951,409,Tag0,unknown
1500020290564,0,-313,-6.87744140625E-5,63,66,47,177066,25977,5280,9566,11483,5450,951,409,Tag0,unknown
1500020290564,0,-314,-6.8994140625E-5,63,66,47,177066,25977,5280,9566,11483,5450,951,409,Tag0,unknown
1500020290565,0,-274,-6.0205078124999997E-5,63,66,47,177066,25977,5280,9566,11483,5450,951,409,Tag0,unknown
1500020290565,0,42,9.228515625000002E-6,63,66,47,177066,25977,5280,9566,11483,5450,951,409,Tag0,unknown
1500020290566,0,83,1.82373046875E-5,63,66,47,177066,25977,5280,9566,11483,5450,951,409,Tag0,unknown
1500020290566,0,96,2.109375E-5,63,66,47,177066,25977,5280,9566,11483,5450,951,409,Tag0,unknown
1500020290566,0,96,2.109375E-5,63,66,47,177066,25977,5280,9566,11483,5450,951,409,Tag0,unknown
1500020290567,0,105,2.30712890625E-5,63,66,47,177066,25977,5280,9566,11483,5450,951,409,Tag0,unknown
1500020290567,0,-119,-2.6147460937500004E-5,63,66,47,177066,25977,5280,9566,11483,5450,951,409,Tag0,unknown
1500020290596,0,-78,-1.7138671875E-5,63,66,47,177066,25977,5280,9566,11483,5450,951,409,Tag0,unknown
1500020290614,0,-46,-1.0107421875E-5,63,66,47,177066,25977,5280,9566,11483,5450,951,409,Tag0,unknown
1500020290614,0,-40,-8.7890625E-6,63,66,47,177066,25977,5280,9566,11483,5450,951,409,Tag0,unknown
1500020290615,0,-48,-1.0546875E-5,63,66,47,177066,25977,5280,9566,11483,5450,951,409,Tag0,unknown
1500020290616,0,-59,-1.29638671875E-5,63,66,47,177066,25977,5280,9566,11483,5450,951,409,Tag0,unknown
1500020290617,0,-57,-1.2524414062500001E-5,63,66,47,177066,25977,5280,9566,11483,5450,951,409,Tag0,unknown
1500020290617,0,-55,-1.20849609375E-5,63,66,47,177066,25977,5280,9566,11483,5450,951,409,Tag0,unknown
1500020290618,0,-53,-1.1645507812500002E-5,63,66,47,177066,25977,5280,9566,11483,5450,951,409,Tag0,unknown
1500020290619,0,-53,-1.1645507812500002E-5,63,66,47,177066,25977,5280,9566,11483,5450,951,409,Tag0,unknown
1500020290620,0,-39,-8.5693359375E-6,63,66,47,177066,25977,5280,9566,11483,5450,951,409,Tag0,unknown
1500020290621,0,-7,-1.5380859375E-6,63,66,47,177066,25977,5280,9566,11483,5450,951,409,Tag0,unknown
1500020290621,0,268,5.8886718750000006E-5,63,66,47,177066,25977,5280,9566,11483,5450,951,409,Tag0,unknown
1500020290622,0,262,5.7568359375E-5,63,66,47,177066,25977,5280,9566,11483,5450,951,409,Tag0,unknown
1500020290623,0,-26,-5.712890625E-6,63,66,47,177066,25977,5280,9566,11483,5450,951,409,Tag0,unknown
1500020290624,0,-45,-9.8876953125E-6,63,66,36,177066,25977,5280,9566,11483,5450,951,409,Tag0,unknown
1500020290625,0,-56,-1.23046875E-5,63,66,36,177066,25977,5280,9566,11483,5450,951,409,Tag0,unknown
1500020290625,0,-74,-1.6259765625E-5,63,66,36,177066,25977,5280,9566,11483,5450,951,409,Tag0,unknown
1500020290626,0,-90,-1.9775390625E-5,63,66,36,177066,25977,5280,9566,11483,5450,951,409,Tag0,unknown
1500020290627,0,-108,-2.3730468750000002E-5,63,66,36,177066,25977,5280,9566,11483,5450,951,409,Tag0,unknown
1500020290628,0,-124,-2.724609375E-5,63,66,36,177066,25977,5280,9566,11483,5450,951,409,Tag0,unknown
1500020290629,0,-123,-2.70263671875E-5,63,66,36,177066,25977,5280,9566,11483,5450,951,409,Tag0,unknown
1500020290630,0,-128,-2.8125E-5,63,66,36,177066,25977,5280,9566,11483,5450,951,409,Tag0,unknown
1500020290630,0,98,2.1533203125E-5,63,66,36,177066,25977,5280,9566,11483,5450,951,409,Tag0,unknown
1500020290631,0,60,1.318359375E-5,63,66,36,177066,25977,5280,9566,11483,5450,951,409,Tag0,unknown
1500020290632,0,39,8.5693359375E-6,63,66,36,177066,25977,5280,9566,11483,5450,951,409,Tag0,unknown
1500020290633,0,37,8.1298828125E-6,63,66,36,177066,25977,5280,9566,11483,5450,951,409,Tag0,unknown
1500020290633,0,41,9.008789062499999E-6,63,66,36,177066,25977,5280,9566,11483,5450,951,409,Tag0,unknown
1500020290634,0,40,8.7890625E-6,63,66,36,177066,25977,5280,9566,11483,5450,951,409,Tag0,unknown
1500020290634,0,33,7.2509765625E-6,63,66,36,177066,25977,5280,9566,11483,5450,951,409,Tag0,unknown
1500020290635,0,25,5.4931640625E-6,63,66,36,177066,25977,5280,9566,11483,5450,951,409,Tag0,unknown
1500020290660,0,24,5.2734375E-6,63,66,36,177066,25977,5280,9566,11483,5450,951,409,Tag0,unknown
1500020290680,0,19,4.1748046875E-6,63,66,36,177066,25977,5280,9566,11483,5450,951,409,Tag0,unknown
1500020290681,0,9,1.9775390625E-6,63,66,36,177066,25977,5280,9566,11483,5450,951,409,Tag0,unknown
1500020290681,0,9,1.9775390625E-6,63,66,36,177066,25977,5280,9566,11483,5450,951,409,Tag0,unknown
1500020290682,0,12,2.63671875E-6,63,66,36,177066,25977,5280,9566,11483,5450,951,409,Tag0,unknown
1500020290683,0,3,6.591796875E-7,63,66,36,177066,25977,5280,9566,11483,5450,951,409,Tag0,unknown
1500020290683,0,-267,-5.86669921875E-5,63,66,36,177066,25977,5280,9566,11483,5450,951,409,Tag0,unknown
1500020290684,0,-264,-5.80078125E-5,63,66,36,177066,25977,5280,9566,11483,5450,951,409,Tag0,unknown
1500020290685,0,0,0.0,63,66,36,177066,25977,5280,9566,11483,5450,951,409,Tag0,unknown
1500020290687,0,-265,-5.82275390625E-5,63,66,36,177066,25977,5280,9566,11483,5450,951,409,Tag0,unknown
1500020290687,0,-277,-6.0864257812500005E-5,63,66,36,177066,25977,5280,9566,11483,5450,951,409,Tag0,unknown
1500020290688,0,-277,-6.0864257812500005E-5,63,66,36,177066,25977,5280,9566,11483,5450,951,409,Tag0,unknown
1500020290688,0,-266,-5.8447265625E-5,63,66,36,177066,25977,5280,9566,11483,5450,951,409,Tag0,unknown
1500020290689,0,6,1.318359375E-6,63,66,36,177066,25977,5280,9566,11483,5450,951,409,Tag0,unknown
1500020290689,0,12,2.63671875E-6,63,66,36,177066,25977,5280,9566,11483,5450,951,409,Tag0,unknown
1500020290690,0,3,6.591796875E-7,63,66,36,177066,25977,5280,9566,11483,5450,951,409,Tag0,unknown
1500020290691,0,4,8.7890625E-7,63,66,36,177066,25977,5280,9566,11483,5450,951,409,Tag0,unknown
1500020290691,0,20,4.39453125E-6,63,66,36,177066,25977,5280,9566,11483,5450,951,409,Tag0,unknown
1500020290692,0,25,5.4931640625E-6,63,66,36,177066,25977,5280,9566,11483,5450,951,409,Tag0,unknown
1500020290692,0,16,3.515625E-6,63,66,36,177066,25977,5280,9566,11483,5450,951,409,Tag0,unknown
1500020290693,0,2,4.39453125E-7,63,66,36,177066,25977,5280,9566,11483,5450,951,409,Tag0,unknown
1500020290694,0,3,6.591796875E-7,63,66,36,177066,25977,5280,9566,11483,5450,951,409,Tag0,unknown
1500020290695,0,21,4.614257812500001E-6,63,66,36,177066,25977,5280,9566,11483,5450,951,409,Tag0,unknown
1500020290695,0,26,5.712890625E-6,63,66,36,177066,25977,5280,9566,11483,5450,951,409,Tag0,unknown
1500020290696,0,10,2.197265625E-6,63,66,36,177066,25977,5280,9566,11483,5450,951,409,Tag0,unknown
1500020290696,0,-258,-5.6689453125000004E-5,63,66,36,177066,25977,5280,9566,11483,5450,951,409,Tag0,unknown
1500020290697,0,2,4.39453125E-7,63,66,36,177066,25977,5280,9566,11483,5450,951,409,Tag0,unknown
1500020290697,0,21,4.614257812500001E-6,63,66,36,177066,25977,5280,9566,11483,5450,951,409,Tag0,unknown
1500020290698,0,24,5.2734375E-6,63,66,36,177066,25977,5280,9566,11483,5450,951,409,Tag0,unknown
1500020290698,0,13,2.8564453125E-6,63,66,36,177066,25977,5280,9566,11483,5450,951,409,Tag0,unknown
1500020290725,0,2,4.39453125E-7,63,66,36,177066,25977,5280,9566,11483,5450,951,409,Tag0,unknown
1500020290747,0,-259,-5.69091796875E-5,63,66,36,177066,25977,5280,9566,11483,5450,951,409,Tag0,unknown
1500020290747,0,9,1.9775390625E-6,63,66,36,177066,25977,5280,9566,11483,5450,951,409,Tag0,unknown
1500020290748,0,28,6.15234375E-6,63,66,36,177066,25977,5280,9566,11483,5450,951,409,Tag0,unknown
1500020290748,0,36,7.91015625E-6,63,66,36,177066,25977,5280,9566,11483,5450,951,409,Tag0,unknown
1500020290749,0,25,5.4931640625E-6,63,66,36,177066,25977,5280,9566,11483,5450,951,409,Tag0,unknown
1500020290749,0,11,2.4169921875E-6,63,66,36,177066,25977,5280,9566,11483,5450,951,409,Tag0,unknown
1500020290750,0,7,1.5380859375E-6,63,66,36,177066,25977,5280,9566,11483,5450,951,409,Tag0,unknown
1500020290750,0,18,3.955078125E-6,63,66,36,177066,25977,5280,9566,11483,5450,951,409,Tag0,unknown
1500020290751,0,34,7.4707031250000005E-6,63,66,36,177066,25977,5280,9566,11483,5450,951,409,Tag0,unknown
1500020290751,0,38,8.349609375E-6,63,66,36,177066,25977,5280,9566,11483,5450,951,409,Tag0,unknown
1500020290752,0,25,5.4931640625E-6,63,66,36,177066,25977,5280,9566,11483,5450,951,409,Tag0,unknown
1500020290752,0,8,1.7578125E-6,63,66,36,177066,25977,5280,9566,11483,5450,951,409,Tag0,unknown
1500020290753,0,12,2.63671875E-6,63,66,36,177066,25977,5280,9566,11483,5450,951,409,Tag0,unknown
1500020290753,0,27,5.9326171875000005E-6,63,66,36,177066,25977,5280,9566,11483,5450,951,409,Tag0,unknown
1500020290754,0,28,6.15234375E-6,63,66,36,177066,25977,5280,9566,11483,5450,951,409,Tag0,unknown
1500020290754,0,18,3.955078125E-6,63,66,36,177066,25977,5280,9566,11483,5450,951,409,Tag0,unknown
1500020290755,0,5,1.0986328125E-6,63,66,36,177066,25977,5280,9566,11483,5450,951,409,Tag0,unknown
1500020290755,0,3,6.591796875E-7,63,66,36,177066,25977,5280,9566,11483,5450,951,409,Tag0,unknown
1500020290756,0,3,6.591796875E-7,63,66,36,177066,25977,5280,9566,11483,5450,951,409,Tag0,unknown
1500020290756,0,-261,-5.73486328125E-5,63,66,36,177066,25977,5280,9566,11483,5450,951,409,Tag0,unknown
1500020290756,0,-261,-5.73486328125E-5,63,66,36,177066,25977,5280,9566,11483,5450,951,409,Tag0,unknown
1500020290756,0,11,2.4169921875E-6,63,66,36,177066,25977,5280,9566,11483,5450,951,409,Tag0,unknown
1500020290757,0,21,4.614257812500001E-6,63,66,36,177066,25977,5280,9566,11483,5450,951,409,Tag0,unknown
1500020290757,0,21,4.614257812500001E-6,63,66,36,177066,25977,5280,9566,11483,5450,951,409,Tag0,unknown
1500020290758,0,22,4.833984375E-6,63,66,36,177066,25977,5280,9566,11483,5450,951,409,Tag0,unknown
1500020290758,0,32,7.03125E-6,63,66,36,177066,25977,5280,9566,11483,5450,951,409,Tag0,unknown
1500020290759,0,32,7.03125E-6,63,66,36,177066,25977,5280,9566,11483,5450,951,409,Tag0,unknown
1500020290759,0,24,5.2734375E-6,63,66,36,177066,25977,5280,9566,11483,5450,951,409,Tag0,unknown
1500020290759,0,21,4.614257812500001E-6,63,66,36,177066,25977,5280,9566,11483,5450,951,409,Tag0,unknown
1500020290760,0,17,3.7353515625000003E-6,63,66,36,177066,25977,5280,9566,11483,5450,951,409,Tag0,unknown
1500020290761,0,8,1.7578125E-6,63,66,36,177066,25977,5280,9566,11483,5450,951,409,Tag0,unknown
1500020290761,0,3,6.591796875E-7,63,66,36,177066,25977,5280,9566,11483,5450,951,409,Tag0,unknown
1500020290762,0,11,2.4169921875E-6,63,66,36,177066,25977,5280,9566,11483,5450,951,409,Tag0,unknown
1500020290762,0,28,6.15234375E-6,63,66,36,177066,25977,5280,9566,11483,5450,951,409,Tag0,unknown
1500020290763,0,41,9.008789062499999E-6,63,66,36,177066,25977,5280,9566,11483,5450,951,409,Tag0,unknown
1500020290763,0,26,5.712890625E-6,63,66,36,177066,25977,5280,9566,11483,5450,951,409,Tag0,unknown
1500020290763,0,5,1.0986328125E-6,63,66,36,177066,25977,5280,9566,11483,5450,951,409,Tag0,unknown
1500020290764,0,17,3.7353515625000003E-6,63,66,36,177066,25977,5280,9566,11483,5450,951,409,Tag0,unknown
1500020290764,0,50,1.0986328125E-5,63,66,36,177066,25977,5280,9566,11483,5450,951,409,Tag0,unknown
1500020290793,0,60,1.318359375E-5,63,66,36,177066,25977,5280,9566,11483,5450,951,409,Tag0,unknown
1500020290793,0,56,1.23046875E-5,63,66,36,177066,25977,5280,9566,11483,5450,951,409,Tag0,unknown
1500020290813,0,45,9.8876953125E-6,63,66,36,177066,25977,5280,9566,11483,5450,951,409,Tag0,unknown
1500020290814,0,48,1.0546875E-5,63,66,36,177066,25977,5280,9566,11483,5450,951,409,Tag0,unknown
1500020290814,0,52,1.142578125E-5,63,66,36,177066,25977,5280,9566,11483,5450,951,409,Tag0,unknown
1500020290814,0,55,1.20849609375E-5,63,66,36,177066,25977,5280,9566,11483,5450,951,409,Tag0,unknown
1500020290814,0,50,1.0986328125E-5,63,66,36,177066,25977,5280,9566,11483,5450,951,409,Tag0,unknown
1500020290815,0,48,1.0546875E-5,63,66,36,177066,25977,5280,9566,11483,5450,951,409,Tag0,unknown
1500020290815,0,56,1.23046875E-5,63,66,36,177066,25977,5280,9566,11483,5450,951,409,Tag0,unknown
1500020290815,0,67,1.4721679687500002E-5,63,66,36,177066,25977,5280,9566,11483,5450,951,409,Tag0,unknown
1500020290815,0,58,1.2744140625E-5,63,66,36,177066,25977,5280,9566,11483,5450,951,409,Tag0,unknown
1500020290816,0,51,1.1206054687499999E-5,63,66,36,177066,25977,5280,9566,11483,5450,951,409,Tag0,unknown
1500020290816,0,61,1.34033203125E-5,63,66,36,177066,25977,5280,9566,11483,5450,951,409,Tag0,unknown
1500020290816,0,75,1.64794921875E-5,63,66,36,177066,25977,5280,9566,11483,5450,951,409,Tag0,unknown
1500020290816,0,82,1.8017578124999998E-5,63,66,36,177066,25977,5280,9566,11483,5450,951,409,Tag0,unknown
1500020290817,0,72,1.58203125E-5,63,66,36,177066,25977,5280,9566,11483,5450,951,409,Tag0,unknown
1500020290817,0,53,1.1645507812500002E-5,63,66,36,177066,25977,5280,9566,11483,5450,951,409,Tag0,unknown
1500020290817,0,41,9.008789062499999E-6,63,66,36,177066,25977,5280,9566,11483,5450,951,409,Tag0,unknown
1500020290817,0,40,8.7890625E-6,63,66,36,177066,25977,5280,9566,11483,5450,951,409,Tag0,unknown
1500020290818,0,35,7.6904296875E-6,63,66,36,177066,25977,5280,9566,11483,5450,951,409,Tag0,unknown
1500020290818,0,29,6.3720703125E-6,63,66,36,177066,25977,5280,9566,11483,5450,951,409,Tag0,unknown
1500020290818,0,22,4.833984375E-6,63,66,36,177066,25977,5280,9566,11483,5450,951,409,Tag0,unknown
1500020290819,0,7,1.5380859375E-6,63,66,36,177066,25977,5280,9566,11483,5450,951,409,Tag0,unknown
1500020290819,0,12,2.63671875E-6,63,66,36,177066,25977,5280,9566,11483,5450,951,409,Tag0,unknown
1500020290819,0,26,5.712890625E-6,63,66,36,177066,25977,5280,9566,11483,5450,951,409,Tag0,unknown
1500020290819,0,28,6.15234375E-6,63,66,36,177066,25977,5280,9566,11483,5450,951,409,Tag0,unknown
1500020290820,0,33,7.2509765625E-6,63,66,36,177066,25977,5280,9566,11483,5450,951,409,Tag0,unknown
1500020290820,0,25,5.4931640625E-6,63,66,36,177066,25977,5280,9566,11483,5450,951,409,Tag0,unknown
1500020290820,0,28,6.15234375E-6,63,66,36,177066,25977,5280,9566,11483,5450,951,409,Tag0,unknown
1500020290820,0,41,9.008789062499999E-6,63,66,36,177066,25977,5280,9566,11483,5450,951,409,Tag0,unknown
1500020290866,0,54,1.1865234375000001E-5,63,66,36,177066,25977,5280,9566,11483,5450,951,409,Tag0,unknown
1500020290883,0,61,1.34033203125E-5,63,66,36,177066,25977,5280,9566,11483,5450,951,409,Tag0,unknown
1500020290884,0,55,1.20849609375E-5,63,66,36,177066,25977,5280,9566,11483,5450,951,409,Tag0,unknown
1500020290885,0,44,9.66796875E-6,63,66,36,177066,25977,5280,9566,11483,5450,951,409,Tag0,unknown
1500020290886,0,43,9.448242187500001E-6,63,66,36,177066,25977,5280,9566,11483,5450,951,409,Tag0,unknown
1500020290887,0,39,8.5693359375E-6,63,66,36,177066,25977,5280,9566,11483,5450,951,409,Tag0,unknown
1500020290887,0,35,7.6904296875E-6,63,66,36,177066,25977,5280,9566,11483,5450,951,409,Tag0,unknown
1500020290888,0,45,9.8876953125E-6,63,66,36,177066,25977,5280,9566,11483,5450,951,409,Tag0,unknown
1500020290889,0,59,1.29638671875E-5,63,66,36,177066,25977,5280,9566,11483,5450,951,409,Tag0,unknown
1500020290889,0,55,1.20849609375E-5,63,66,36,177066,25977,5280,9566,11483,5450,951,409,Tag0,unknown
1500020290890,0,57,1.2524414062500001E-5,63,66,36,177066,25977,5280,9566,11483,5450,951,409,Tag0,unknown
1500020290891,0,56,1.23046875E-5,63,66,36,177066,25977,5280,9566,11483,5450,951,409,Tag0,unknown
1500020290892,0,52,1.142578125E-5,63,66,36,177066,25977,5280,9566,11483,5450,951,409,Tag0,unknown
1500020290892,0,59,1.29638671875E-5,63,66,36,177066,25977,5280,9566,11483,5450,951,409,Tag0,unknown
1500020290893,0,72,1.58203125E-5,63,66,36,177066,25977,5280,9566,11483,5450,951,409,Tag0,unknown
1500020290894,0,80,1.7578125E-5,63,66,36,177066,25977,5280,9566,11483,5450,951,409,Tag0,unknown
1500020290895,0,72,1.58203125E-5,63,66,36,177066,25977,5280,9566,11483,5450,951,409,Tag0,unknown
1500020290896,0,64,1.40625E-5,63,66,36,177066,25977,5280,9566,11483,5450,951,409,Tag0,unknown
1500020290897,0,56,1.23046875E-5,63,66,36,177066,25977,5280,9566,11483,5450,951,409,Tag0,unknown
1500020290897,0,58,1.2744140625E-5,63,66,36,177066,25977,5280,9566,11483,5450,951,409,Tag0,unknown
1500020290898,0,61,1.34033203125E-5,63,66,36,177066,25977,5280,9566,11483,5450,951,409,Tag0,unknown
1500020290899,0,57,1.2524414062500001E-5,63,66,36,177066,25977,5280,9566,11483,5450,951,409,Tag0,unknown
1500020290899,0,44,9.66796875E-6,63,66,36,177066,25977,5280,9566,11483,5450,951,409,Tag0,unknown
1500020290900,0,25,5.4931640625E-6,63,66,36,177066,25977,5280,9566,11483,5450,951,409,Tag0,unknown
1500020290901,0,33,7.2509765625E-6,63,66,36,177066,25977,5280,9566,11483,5450,951,409,Tag0,unknown
1500020290902,0,60,1.318359375E-5,63,66,36,177066,25977,5280,9566,11483,5450,951,409,Tag0,unknown
1500020290902,0,74,1.6259765625E-5,63,66,36,177066,25977,5280,9566,11483,5450,951,409,Tag0,unknown
1500020290903,0,67,1.4721679687500002E-5,63,66,36,177066,25977,5280,9566,11483,5450,951,409,Tag0,unknown
1500020290904,0,50,1.0986328125E-5,63,66,36,177066,25977,5280,9566,11483,5450,951,409,Tag0,unknown
1500020290904,0,55,1.20849609375E-5,63,66,36,177066,25977,5280,9566,11483,5450,951,409,Tag0,unknown
1500020290905,0,72,1.58203125E-5,63,66,36,177066,25977,5280,9566,11483,5450,951,409,Tag0,unknown
1500020290906,0,72,1.58203125E-5,63,66,36,177066,25977,5280,9566,11483,5450,951,409,Tag0,unknown
1500020290906,0,48,1.0546875E-5,63,66,36,177066,25977,5280,9566,11483,5450,951,409,Tag0,unknown
1500020290907,0,22,4.833984375E-6,63,66,36,177066,25977,5280,9566,11483,5450,951,409,Tag0,unknown
1500020290907,0,18,3.955078125E-6,63,66,36,177066,25977,5280,9566,11483,5450,951,409,Tag0,unknown
1500020290907,0,36,7.91015625E-6,63,66,36,177066,25977,5280,9566,11483,5450,951,409,Tag0,unknown
1500020290908,0,65,1.42822265625E-5,63,66,36,177066,25977,5280,9566,11483,5450,951,409,Tag0,unknown
1500020290908,0,61,1.34033203125E-5,63,66,36,177066,25977,5280,9566,11483,5450,951,409,Tag0,unknown
1500020290909,0,35,7.6904296875E-6,63,66,36,177066,25977,5280,9566,11483,5450,951,409,Tag0,unknown
1500020290909,0,10,2.197265625E-6,63,66,36,177066,25977,5280,9566,11483,5450,951,409,Tag0,unknown
1500020290929,0,17,3.7353515625000003E-6,63,66,36,177066,25977,5280,9566,11483,5450,951,409,Tag0,unknown
1500020290931,0,39,8.5693359375E-6,63,66,36,177066,25977,5280,9566,11483,5450,951,409,Tag0,unknown
1500020290932,0,57,1.2524414062500001E-5,63,66,36,177066,25977,5280,9566,11483,5450,951,409,Tag0,unknown
1500020290949,0,57,1.2524414062500001E-5,63,66,36,177066,25977,5280,9566,11483,5450,951,409,Tag0,unknown
